 'T[K]'  'P[atm]'  'H[MJ/kg]'   'Cpef[kJ/kg/K]'  'Visc[Pa*s]'  'Leff[W/m/K]'  'Sigma[1/Ohm/m]'  'Mass[g/mol]' 
    3.000000e+02    1.000000e+00
    3.230000e+04    1.000000e+00
    2.000000e+01    0.000000e+00
    300         1    0.00192321           1.0395   1.83694e-05      0.0268971                 0        28.0134 
    320         1     0.0227017          1.03852   1.91935e-05      0.0281483                 0        28.0134 
    340         1     0.0434704          1.03849   2.00505e-05       0.029464                 0        28.0134 
    360         1     0.0642463          1.03921   2.09491e-05      0.0308723                 0        28.0134 
    380         1     0.0850429          1.04055   2.18578e-05      0.0323173                 0        28.0134 
    400         1      0.105871          1.04239    2.2641e-05      0.0335936                 0        28.0134 
    420         1      0.126741          1.04465    2.3374e-05      0.0348127                 0        28.0134 
    440         1       0.14766          1.04727   2.41017e-05       0.036033                 0        28.0134 
    460         1      0.168634           1.0502     2.488e-05      0.0373458                 0        28.0134 
    480         1      0.189669          1.05338   2.56637e-05      0.0386866                 0        28.0134 
    500         1      0.210771          1.05679   2.64789e-05      0.0400948                 0        28.0134 
    520         1      0.231942          1.06039   2.71866e-05      0.0413531                 0        28.0134 
    540         1      0.253187          1.06416   2.78618e-05      0.0425742                 0        28.0134 
    560         1       0.27451          1.06808   2.85141e-05      0.0437706                 0        28.0134 
    580         1      0.295911          1.07212   2.91661e-05      0.0449733                 0        28.0134 
    600         1      0.317395          1.07627   2.98372e-05       0.046218                 0        28.0134 
    620         1      0.338963          1.08052   3.05245e-05      0.0474987                 0        28.0134 
    640         1      0.360616          1.08485   3.12118e-05      0.0487718                 0        28.0134 
    660         1      0.382357          1.08926   3.19504e-05      0.0501351                 0        28.0134 
    680         1      0.404187          1.09372    3.2586e-05       0.051346                 0        28.0134 
    700         1      0.426106          1.09823   3.32028e-05      0.0525312                 0        28.0134 
    720         1      0.448116          1.10277   3.38016e-05      0.0536954                 0        28.0134 
    740         1      0.470218          1.10735   3.43857e-05      0.0548424                 0        28.0134 
    760         1      0.492411          1.11195   3.49778e-05      0.0560031                 0        28.0134 
    780         1      0.514696          1.11657   3.55583e-05      0.0571497                 0        28.0134 
    800         1      0.537073          1.12119   3.61612e-05      0.0583445                 0        28.0134 
    820         1      0.559543          1.12581   3.67714e-05      0.0595552                 0        28.0134 
    840         1      0.582106          1.13042   3.73823e-05      0.0607786                 0        28.0134 
    860         1       0.60476          1.13501   3.79878e-05      0.0620053                 0        28.0134 
    880         1      0.627506          1.13959   3.86562e-05      0.0633555                 0        28.0134 
    900         1      0.650343          1.14413   3.92233e-05      0.0645347                 0        28.0134 
    920         1      0.673271          1.14864   3.97796e-05      0.0657014                 0        28.0134 
    940         1      0.696289          1.15311   4.03253e-05      0.0668542                 0        28.0134 
    960         1      0.719395          1.15753   4.08607e-05       0.067993                 0        28.0134 
    980         1       0.74259           1.1619   4.13861e-05      0.0691175                 0        28.0134 
   1000         1      0.765871          1.16622   4.19185e-05      0.0702516                 0        28.0134 
   1020         1      0.789238          1.17046   4.24511e-05      0.0713845                 0        28.0134 
   1040         1      0.812689          1.17464    4.2975e-05      0.0725035                 0        28.0134 
   1060         1      0.836223          1.17874   4.35069e-05      0.0736429                 0        28.0134 
   1080         1      0.859838          1.18276   4.40576e-05      0.0748132                 0        28.0134 
   1100         1      0.883533           1.1867   4.46016e-05      0.0759719                 0        28.0134 
   1120         1      0.907305          1.19054   4.51469e-05      0.0771374                 0        28.0134 
   1140         1      0.931154          1.19428    4.5689e-05      0.0782984                 0        28.0134 
   1160         1      0.955076          1.19792   4.63181e-05      0.0796284                 0        28.0134 
   1180         1       0.97907          1.20145   4.68313e-05      0.0807434                 0        28.0134 
   1200         1       1.00313          1.20487   4.73379e-05      0.0818442                 0        28.0134 
   1220         1       1.02726          1.20816    4.7838e-05      0.0829301                 0        28.0134 
   1240         1       1.05146          1.21134   4.83316e-05      0.0840012                 0        28.0134 
   1260         1       1.07572          1.21441   4.88191e-05      0.0850577                 0        28.0134 
   1280         1       1.10003          1.21737   4.93004e-05         0.0861                 0        28.0134 
   1300         1       1.12441          1.22023   4.97757e-05      0.0871283                 0        28.0134 
   1320         1       1.14884          1.22299   5.02531e-05      0.0881548                 0        28.0134 
   1340         1       1.17333          1.22567   5.07362e-05       0.089185                 0        28.0134 
   1360         1       1.19787          1.22826   5.12169e-05      0.0902068                 0        28.0134 
   1380         1       1.22246          1.23077   5.17411e-05      0.0912804                 0        28.0134 
   1400         1        1.2471           1.2332    5.2228e-05       0.092316                 0        28.0134 
   1420         1       1.27179          1.23557   5.27124e-05      0.0933454                 0        28.0134 
   1440         1       1.29652          1.23786   5.31943e-05      0.0943685                 0        28.0134 
   1460         1        1.3213          1.24009   5.36738e-05      0.0953856                 0        28.0134 
   1480         1       1.34612          1.24225    5.4151e-05      0.0963968                 0        28.0134 
   1500         1       1.37099          1.24436   5.46258e-05      0.0974024                 0        28.0134 
   1520         1        1.3959           1.2464   5.50984e-05      0.0984024                 0        28.0134 
   1540         1       1.42085           1.2484   5.55688e-05      0.0993971                 0        28.0134 
   1560         1       1.44583          1.25034    5.6037e-05       0.100386                 0        28.0134 
   1580         1       1.47086          1.25223    5.6503e-05       0.101371                 0        28.0134 
   1600         1       1.49592          1.25407    5.6967e-05        0.10235                 0        28.0134 
   1620         1       1.52102          1.25587   5.74288e-05       0.103324                 0        28.0134 
   1640         1       1.54616          1.25762   5.78887e-05       0.104294                 0        28.0134 
   1660         1       1.57133          1.25933   5.83466e-05       0.105258                 0        28.0134 
   1680         1       1.59653            1.261   5.88025e-05       0.106219                 0        28.0134 
   1700         1       1.62177          1.26264   5.92565e-05       0.107174                 0        28.0134 
   1720         1       1.64704          1.26423   5.97086e-05       0.108125                 0        28.0134 
   1740         1       1.67234          1.26579   6.01589e-05       0.109072                 0        28.0134 
   1760         1       1.69767          1.26731   6.06073e-05       0.110015                 0        28.0134 
   1780         1       1.72303           1.2688   6.10539e-05       0.110953                 0        28.0134 
   1800         1       1.74842          1.27025   6.14988e-05       0.111888                 0        28.0134 
   1820         1       1.77384          1.27168   6.19419e-05       0.112818                 0        28.0134 
   1840         1       1.79928          1.27307   6.23833e-05       0.113744                 0        28.0134 
   1860         1       1.82476          1.27443    6.2823e-05       0.114667                 0        28.0134 
   1880         1       1.85026          1.27577   6.32611e-05       0.115585                 0        28.0134 
   1900         1       1.87579          1.27708   6.36975e-05         0.1165                 0        28.0134 
   1920         1       1.90134          1.27836   6.41324e-05       0.117411                 0        28.0134 
   1940         1       1.92692          1.27961   6.45656e-05       0.118319                 0        28.0134 
   1960         1       1.95253          1.28084   6.49973e-05       0.119223                 0        28.0134 
   1980         1       1.97816          1.28205   6.54274e-05       0.120123                 0        28.0134 
   2000         1       2.00381          1.28323    6.5856e-05        0.12102                 0        28.0134 
   2020         1       2.02949          1.28439   6.62831e-05       0.121914                 0        28.0134 
   2040         1       2.05519          1.28553   6.67088e-05       0.122804                 0        28.0134 
   2060         1       2.08091          1.28664   6.71329e-05       0.123691                 0        28.0134 
   2080         1       2.10665          1.28774   6.75557e-05       0.124574                 0        28.0134 
   2100         1       2.13242          1.28881    6.7977e-05       0.125455                 0        28.0134 
   2120         1        2.1582          1.28987    6.8397e-05       0.126332                 0        28.0134 
   2140         1       2.18401           1.2909   6.88155e-05       0.127206                 0        28.0134 
   2160         1       2.20984          1.29192   6.92327e-05       0.128077                 0        28.0134 
   2180         1       2.23569          1.29291   6.96486e-05       0.128944                 0        28.0134 
   2200         1       2.26156          1.29389   7.00631e-05       0.129809                 0        28.0134 
   2220         1       2.28744          1.29486   7.04763e-05       0.130671                 0        28.0134 
   2240         1       2.31335           1.2958   7.08882e-05        0.13153                 0        28.0134 
   2260         1       2.33928          1.29673   7.12989e-05       0.132386                 0        28.0134 
   2280         1       2.36522          1.29764   7.17083e-05       0.133239                 0        28.0134 
   2300         1       2.39118          1.29854   7.21164e-05        0.13409                 0        28.0134 
   2320         1       2.41716          1.29942   7.25234e-05       0.134937                 0        28.0134 
   2340         1       2.44316          1.30029   7.29291e-05       0.135782                 0        28.0134 
   2360         1       2.46917          1.30114   7.33336e-05       0.136625                 0        28.0134 
   2380         1        2.4952          1.30198   7.37369e-05       0.137464                 0        28.0134 
   2400         1       2.52125           1.3028   7.41391e-05       0.138301                 0        28.0134 
   2420         1       2.54732          1.30361     7.454e-05       0.139136                 0        28.0134 
   2440         1        2.5734          1.30441   7.49399e-05       0.139968                 0        28.0134 
   2460         1       2.59949           1.3052   7.53386e-05       0.140797                 0        28.0134 
   2480         1        2.6256          1.30597   7.57362e-05       0.141625                 0        28.0134 
   2500         1       2.65173          1.30674   7.61327e-05       0.142449                 0        28.0134 
   2520         1       2.67787          1.30749   7.65281e-05       0.143272                 0        28.0134 
   2540         1       2.70403          1.30823   7.69224e-05       0.144092                 0        28.0134 
   2560         1        2.7302          1.30896   7.73157e-05       0.144911                 0        28.0134 
   2580         1       2.75639          1.30968   7.77079e-05       0.145727                 0        28.0134 
   2600         1       2.78259          1.31039    7.8099e-05       0.146541                 0        28.0134 
   2620         1        2.8088          1.31109   7.84891e-05       0.147353                 0        28.0134 
   2640         1       2.83503          1.31179   7.88782e-05       0.148163                 0        28.0134 
   2660         1       2.86128          1.31247   7.92663e-05       0.148972                 0        28.0134 
   2680         1       2.88753          1.31315   7.96534e-05       0.149779                 0        28.0134 
   2700         1        2.9138          1.31382   8.00395e-05       0.150585                 0        28.0134 
   2720         1       2.94009          1.31449   8.04246e-05       0.151389                 0        28.0134 
   2740         1       2.96638          1.31515   8.08087e-05       0.152191                 0        28.0134 
   2760         1       2.99269           1.3158   8.11919e-05       0.152993                 0        28.0134 
   2780         1       3.01901          1.31646   8.15741e-05       0.153794                 0        28.0134 
   2800         1       3.04535          1.31711   8.19554e-05       0.154594                 0        28.0134 
   2820         1        3.0717          1.31775   8.23357e-05       0.155393                 0        28.0133 
   2840         1       3.09806           1.3184   8.27151e-05       0.156192                 0        28.0133 
   2860         1       3.12443          1.31905   8.30936e-05        0.15699                 0        28.0133 
   2880         1       3.15082          1.31969   8.34712e-05       0.157789                 0        28.0133 
   2900         1       3.17722          1.32034    8.3848e-05       0.158588                 0        28.0133 
   2920         1       3.20364          1.32099   8.42238e-05       0.159387                 0        28.0133 
   2940         1       3.23006          1.32165   8.45987e-05       0.160187                 0        28.0133 
   2960         1        3.2565          1.32231   8.49728e-05       0.160989                 0        28.0133 
   2980         1       3.28295          1.32298    8.5346e-05       0.161791                 0        28.0132 
   3000         1       3.30942          1.32366   8.57184e-05       0.162596                 0        28.0132 
   3020         1        3.3359          1.32435   8.60899e-05       0.163403                 0        28.0132 
   3040         1       3.36239          1.32505   8.64606e-05       0.164212                 0        28.0132 
   3060         1        3.3889          1.32577   8.68305e-05       0.165025                 0        28.0131 
   3080         1       3.41543           1.3265   8.71995e-05       0.165841                 0        28.0131 
   3100         1       3.44196          1.32725   8.75678e-05       0.166661                 0         28.013 
   3120         1       3.46852          1.32802   8.79352e-05       0.167486                 0         28.013 
   3140         1       3.49508          1.32882   8.83018e-05       0.168316                 0        28.0129 
   3160         1       3.52167          1.32964   8.86677e-05       0.169152                 0        28.0129 
   3180         1       3.54827          1.33049   8.90328e-05       0.169994                 0        28.0128 
   3200         1       3.57489          1.33137   8.93971e-05       0.170844                 0        28.0128 
   3220         1       3.60152          1.33228   8.97607e-05       0.171702                 0        28.0127 
   3240         1       3.62818          1.33323   9.01235e-05       0.172568                 0        28.0126 
   3260         1       3.65485          1.33423   9.04855e-05       0.173445                 0        28.0125 
   3280         1       3.68155          1.33526   9.08469e-05       0.174332                 0        28.0124 
   3300         1       3.70827          1.33635   9.12075e-05       0.175231                 0        28.0123 
   3320         1         3.735          1.33749   9.15674e-05       0.176142                 0        28.0121 
   3340         1       3.76177          1.33868   9.19265e-05       0.177067                 0         28.012 
   3360         1       3.78855          1.33993    9.2285e-05       0.178007                 0        28.0119 
   3380         1       3.81536          1.34125   9.26428e-05       0.178963                 0        28.0117 
   3400         1        3.8422          1.34264   9.29999e-05       0.179937                 0        28.0115 
   3420         1       3.86907          1.34411   9.33563e-05        0.18093                 0        28.0113 
   3440         1       3.89597          1.34565   9.37121e-05       0.181942                 0        28.0111 
   3460         1        3.9229          1.34728   9.40672e-05       0.182977                 0        28.0109 
   3480         1       3.94986          1.34901   9.44216e-05       0.184035                 0        28.0106 
   3500         1       3.97686          1.35083   9.47755e-05       0.185119                 0        28.0103 
   3520         1       4.00389          1.35275   9.51286e-05       0.186229                 0          28.01 
   3540         1       4.03097          1.35479   9.54812e-05       0.187368                 0        28.0097 
   3560         1       4.05808          1.35694   9.58332e-05       0.188538                 0        28.0093 
   3580         1       4.08525          1.35922   9.61846e-05        0.18974                 0        28.0089 
   3600         1       4.11245          1.36163   9.65354e-05       0.190978                 0        28.0085 
   3620         1       4.13971          1.36418   9.68856e-05       0.192253                 0        28.0081 
   3640         1       4.16702          1.36688   9.72352e-05       0.193567                 0        28.0076 
   3660         1       4.19439          1.36973   9.75844e-05       0.194923                 0         28.007 
   3680         1       4.22181          1.37275   9.79329e-05       0.196324                 0        28.0065 
   3700         1        4.2493          1.37595    9.8281e-05       0.197772                 0        28.0058 
   3720         1       4.27685          1.37933   9.86285e-05        0.19927                 0        28.0052 
   3740         1       4.30447           1.3829   9.89755e-05       0.200822                 0        28.0044 
   3760         1       4.33217          1.38667   9.93221e-05       0.202429                 0        28.0037 
   3780         1       4.35994          1.39067   9.96682e-05       0.204095                 0        28.0028 
   3800         1        4.3878          1.39488   0.000100014       0.205824                 0        28.0019 
   3820         1       4.41574          1.39933   0.000100359       0.207619                 0         28.001 
   3840         1       4.44377          1.40403   0.000100704       0.209483                 0             28 
   3860         1        4.4719          1.40899   0.000101048        0.21142                 0        27.9989 
   3880         1       4.50013          1.41422   0.000101392       0.213434                 0        27.9977 
   3900         1       4.52847          1.41974   0.000101736       0.215529                 0        27.9964 
   3920         1       4.55692          1.42555   0.000102079       0.217709                 0        27.9951 
   3940         1        4.5855          1.43167   0.000102422       0.219978                 0        27.9937 
   3960         1       4.61419          1.43812   0.000102764        0.22234                 0        27.9921 
   3980         1       4.64302          1.44491   0.000103107       0.224801                 0        27.9905 
   4000         1       4.67199          1.45205   0.000103449       0.227365                 0        27.9887 
   4020         1       4.70111          1.45957    0.00010379       0.230036                 0        27.9869 
   4040         1       4.73038          1.46746   0.000104132        0.23282                 0        27.9849 
   4060         1       4.75981          1.47576   0.000104473       0.235721                 0        27.9828 
   4080         1       4.78941          1.48447   0.000104814       0.238746                 0        27.9806 
   4100         1       4.81919          1.49362   0.000105155       0.241899                 0        27.9782 
   4120         1       4.84916          1.50322   0.000105496       0.245186                 0        27.9757 
   4140         1       4.87932          1.51328   0.000105837       0.248614                 0         27.973 
   4160         1       4.90969          1.52384   0.000106177       0.252187                 0        27.9702 
   4180         1       4.94028          1.53489   0.000106518       0.255913                 0        27.9672 
   4200         1       4.97109          1.54647   0.000106858       0.259797                 0         27.964 
   4220         1       5.00214           1.5586   0.000107199       0.263846                 0        27.9607 
   4240         1       5.03344          1.57128   0.000107539       0.268066                 0        27.9571 
   4260         1         5.065          1.58455    0.00010788       0.272465                 0        27.9534 
   4280         1       5.09683          1.59843   0.000108221       0.277049                 0        27.9494 
   4300         1       5.12894          1.61293   0.000108562       0.281826                 0        27.9452 
   4320         1       5.16135          1.62807   0.000108903       0.286802                 0        27.9408 
   4340         1       5.19407          1.64388   0.000109244       0.291986                 0        27.9361 
   4360         1       5.22711          1.66039   0.000109585       0.297385                 0        27.9312 
   4380         1       5.26049           1.6776   0.000109927       0.303006                 0        27.9261 
   4400         1       5.29422          1.69556   0.000110269       0.308859                 0        27.9206 
   4420         1       5.32831          1.71427   0.000110612       0.314951                 0        27.9149 
   4440         1       5.36279          1.73377   0.000110955        0.32129                 0        27.9088 
   4460         1       5.39767          1.75407   0.000111298       0.327885                 0        27.9025 
   4480         1       5.43296          1.77521   0.000111642       0.334744                 0        27.8958 
   4500         1       5.46869          1.79721   0.000111986       0.341878                 0        27.8888 
   4520         1       5.50486           1.8201   0.000112331       0.349293                 0        27.8815 
   4540         1        5.5415          1.84389   0.000112677       0.357001                 0        27.8738 
   4560         1       5.57862          1.86863   0.000113023        0.36501                 0        27.8657 
   4580         1       5.61625          1.89433    0.00011337       0.373329                 0        27.8572 
   4600         1        5.6544          1.92102   0.000113718       0.381968                 0        27.8483 
   4620         1       5.69309          1.94873   0.000114066       0.390938                 0         27.839 
   4640         1       5.73236          1.97749   0.000114416       0.400247                 0        27.8293 
   4660         1        5.7722          2.00733   0.000114766       0.409907                 0        27.8191 
   4680         1       5.81266          2.03828   0.000115118       0.419927                 0        27.8084 
   4700         1       5.85374          2.07036   0.000115471       0.430318                 0        27.7973 
   4720         1       5.89548          2.10361   0.000115824        0.44109                 0        27.7857 
   4740         1       5.93789          2.13805   0.000116179       0.452253                 0        27.7735 
   4760         1       5.98101          2.17372   0.000116535       0.463819                 0        27.7608 
   4780         1       6.02485          2.21065   0.000116893       0.475799                 0        27.7476 
   4800         1       6.06944          2.24886   0.000117252       0.488203                 0        27.7338 
   4820         1       6.11481           2.2884   0.000117612       0.501042                 0        27.7193 
   4840         1       6.16099          2.32929   0.000117974       0.514327                 0        27.7043 
   4860         1         6.208          2.37157   0.000118337       0.528071                 0        27.6887 
   4880         1       6.25586          2.41526   0.000118702       0.542283                 0        27.6724 
   4900         1       6.30462          2.46041   0.000119068       0.556975                 0        27.6555 
   4920         1       6.35429          2.50704   0.000119437       0.572159                 0        27.6378 
   4940         1       6.40491          2.55518   0.000119807       0.587845                 0        27.6195 
   4960         1       6.45651          2.60488   0.000120179       0.604047                 0        27.6004 
   4980         1       6.50911          2.65617   0.000120553       0.620774                 0        27.5806 
   5000         1       6.56276          2.70907    0.00012093       0.638038                 0          27.56 
   5020         1       6.61749          2.76363   0.000121308       0.655851                 0        27.5386 
   5040         1       6.67332          2.81988   0.000121688       0.674224                 0        27.5165 
   5060         1        6.7303          2.87785   0.000122071       0.693169                 0        27.4934 
   5080         1       6.78845          2.93758   0.000122456       0.712696                 0        27.4696 
   5100         1       6.84781          2.99911   0.000122843       0.732817                 0        27.4448 
   5120         1       6.90842          3.06247   0.000123233       0.753544                 0        27.4191 
   5140         1       6.97032          3.12769   0.000123625       0.774887                 0        27.3926 
   5160         1       7.03355          3.19482    0.00012402       0.796858                 0         27.365 
   5180         1       7.09813          3.26389   0.000124418       0.819466                 0        27.3366 
   5200         1       7.16412          3.33492   0.000124818       0.842722                 0        27.3071 
   5220         1       7.23154          3.40797   0.000125221       0.866638                 0        27.2766 
   5240         1       7.30045          3.48306   0.000125627       0.891222                 0        27.2451 
   5260         1       7.37088          3.56024   0.000126035       0.916486                 0        27.2125 
   5280         1       7.44287          3.63952   0.000126447       0.942439                 0        27.1788 
   5300         1       7.51647          3.72097   0.000126861        0.96909                 0         27.144 
   5320         1       7.59173          3.80459   0.000127279       0.996449                 0        27.1081 
   5340         1       7.66867          3.89044     0.0001277        1.02452                 0        27.0711 
   5360         1       7.74736          3.97855   0.000128123        1.05332                 0        27.0328 
   5380         1       7.82783          4.06895    0.00012855        1.08286                 0        26.9934 
   5400         1       7.91013          4.16168    0.00012898        1.11313                 0        26.9528 
   5420         1       7.99432          4.25676   0.000129414        1.14415                 0        26.9109 
   5440         1       8.08042          4.35424    0.00012985        1.17592                 0        26.8677 
   5460         1        8.1685          4.45414    0.00013029        1.20846                 0        26.8233 
   5480         1        8.2586           4.5565   0.000130733        1.24176                 0        26.7776 
   5500         1       8.35078          4.66135   0.000131179        1.27583                 0        26.7305 
   5520         1       8.44508          4.76872   0.000131629        1.31068                 0        26.6821 
   5540         1       8.54155          4.87863   0.000132082         1.3463                 0        26.6324 
   5560         1       8.64024          4.99112   0.000132538        1.38271                 0        26.5812 
   5580         1       8.74121          5.10622   0.000132998         1.4199                 0        26.5287 
   5600         1       8.84451          5.22395    0.00013346        1.45788                 0        26.4747 
   5620         1       8.95018          5.34433   0.000133926        1.49664                 0        26.4193 
   5640         1        9.0583           5.4674   0.000134395        1.53619                 0        26.3624 
   5660         1        9.1689          5.59316   0.000134867        1.57653                 0        26.3041 
   5680         1       9.28204          5.72165   0.000135342        1.61764                 0        26.2443 
   5700         1       9.39779          5.85289    0.00013582        1.65954                 0         26.183 
   5720         1       9.51618          5.98688   0.000136302        1.70221                 0        26.1201 
   5740         1       9.63728          6.12364   0.000136785        1.74565                 0        26.0558 
   5760         1       9.76114          6.26318   0.000137272        1.78985                 0        25.9899 
   5780         1       9.88783          6.40553   0.000137761         1.8348                 0        25.9224 
   5800         1       10.0174          6.55067   0.000138253         1.8805                 0        25.8534 
   5820         1       10.1499          6.69863   0.000138747        1.92694                 0        25.7828 
   5840         1       10.2854          6.84939   0.000139243        1.97409                 0        25.7107 
   5860         1       10.4239          7.00296   0.000139742        2.02196                 0        25.6369 
   5880         1       10.5655          7.15933   0.000140242        2.07052                 0        25.5616 
   5900         1       10.7103           7.3185   0.000140744        2.11976                 0        25.4847 
   5920         1       10.8583          7.48045   0.000141248        2.16965                 0        25.4062 
   5940         1       11.0095          7.64516   0.000141753        2.22019                 0        25.3261 
   5960         1       11.1641          7.81262   0.000142259        2.27134                 0        25.2444 
   5980         1        11.322           7.9828   0.000142766        2.32309                 0        25.1611 
   6000         1       11.4834          8.15567   0.000143273        2.37541                 0        25.0763 
   6020         1       11.6483          8.33118   0.000143781        2.42827                 0        24.9899 
   6040         1       11.8167          8.50931   0.000144289        2.48164                 0        24.9019 
   6060         1       11.9887             8.69   0.000144797        2.53549                 0        24.8123 
   6080         1       12.1643           8.8732   0.000145304        2.58978                 0        24.7212 
   6100         1       12.3436          9.05885   0.000145811         2.6445                 0        24.6285 
   6120         1       12.5267          9.24688   0.000146317        2.69958                 0        24.5344 
   6140         1       12.7135          9.43723   0.000146821          2.755                 0        24.4387 
   6160         1       12.9042          9.62981   0.000147323        2.81072                 0        24.3415 
   6180         1       13.0987          9.82453   0.000147823        2.86668                 0        24.2429 
   6200         1       13.2972          10.0213   0.000148321        2.92285                 0        24.1428 
   6220         1       13.4996            10.22   0.000148816        2.97917                 0        24.0413 
   6240         1        13.706          10.4205   0.000149307        3.03559                 0        23.9384 
   6260         1       13.9164          10.6228   0.000149795        3.09207                 0        23.8341 
   6280         1       14.1309          10.8266   0.000150279        3.14853                 0        23.7286 
   6300         1       14.3495          11.0319   0.000150758        3.20494                 0        23.6217 
   6320         1       14.5722          11.2384   0.000151233        3.26122                 0        23.5135 
   6340         1        14.799          11.4461   0.000151701        3.31731                 0        23.4041 
   6360         1       15.0301          11.6547   0.000152164        3.37315                 0        23.2935 
   6380         1       15.2652          11.8641   0.000152621        3.42868                 0        23.1818 
   6400         1       15.5046           12.074   0.000153071        3.48382                 0         23.069 
   6420         1       15.7482          12.2844   0.000153514         3.5385                 0        22.9551 
   6440         1        15.996          12.4949   0.000153949        3.59265                 0        22.8402 
   6460         1        16.248          12.7053   0.000154377        3.64619                 0        22.7243 
   6480         1       16.5042          12.9154   0.000154795        3.69905                 0        22.6075 
   6500         1       16.7646           13.125   0.000155205        3.75116                 0        22.4899 
   6520         1       17.0292          13.3338   0.000155605        3.80243                 0        22.3714 
   6540         1        17.298          13.5414   0.000155995        3.85277                 0        22.2522 
   6560         1       17.5709          13.7478   0.000156376        3.90212                 0        22.1323 
   6580         1       17.8479          13.9525   0.000156745        3.95038                 0        22.0118 
   6600         1       18.1289          14.1552   0.000157103        3.99747                 0        21.8907 
   6620         1       18.4141          14.3557    0.00015745        4.04332                 0        21.7691 
   6640         1       18.7032          14.5536   0.000157785        4.08783                 0         21.647 
   6660         1       18.9962          14.7487   0.000158108        4.13092                 0        21.5245 
   6680         1       19.2931          14.9405   0.000158418        4.17251                 0        21.4018 
   6700         1       19.5938          15.1287   0.000158715        4.21251                 0        21.2788 
   6720         1       19.8982           15.313   0.000158999        4.25085                 0        21.1556 
   6740         1       20.2063           15.493    0.00015927        4.28743                 0        21.0323 
   6760         1       20.5179          15.6685   0.000159527        4.32219                 0        20.9089 
   6780         1        20.833          15.8389    0.00015977        4.35504                 0        20.7856 
   6800         1       21.1514           16.004   0.000159999        4.38591                 0        20.6624 
   6820         1       21.4731          16.1634   0.000160213        4.41472                 0        20.5394 
   6840         1       21.7979          16.3167   0.000160413        4.44141                 0        20.4166 
   6860         1       22.1258          16.4636   0.000160599        4.46591                 0        20.2941 
   6880         1       22.4564          16.6037    0.00016077        4.48815                 0        20.1719 
   6900         1       22.7899          16.7367   0.000160926        4.50807                 0        20.0503 
   6920         1       23.1259          16.8622   0.000161067        4.52562                 0        19.9291 
   6940         1       23.4643            16.98   0.000161194        4.54075                 0        19.8086 
   6960         1        23.805          17.0896   0.000161306         4.5534                 0        19.6886 
   6980         1       24.1478          17.1909   0.000161404        4.56355                 0        19.5695 
   7000         1       24.4926          17.2834   0.000161488        4.57115                 0        19.4511 
   7020         1       24.8391           17.367   0.000161557        4.57618                 0        19.3335 
   7040         1       25.1872          17.4413   0.000161612         4.5786                 0        19.2169 
   7060         1       25.5367          17.5061   0.000161654        4.57841                 0        19.1012 
   7080         1       25.8874          17.5612   0.000161681        4.57559                 0        18.9866 
   7100         1       26.2391          17.6065   0.000161696        4.57013                 0        18.8731 
   7120         1       26.5916          17.6417   0.000161698        4.56204                 0        18.7607 
   7140         1       26.9447          17.6667   0.000161687        4.55133                 0        18.6496 
   7160         1       27.2982          17.6813   0.000161665          4.538                 0        18.5397 
   7180         1       27.6519          17.6856    0.00016163        4.52209                 0        18.4311 
   7200         1       28.0056          17.6793   0.000161584        4.50362                 0        18.3238 
   7220         1        28.359          17.6626   0.000161528        4.48262                 0         18.218 
   7240         1        28.712          17.6353   0.000161461        4.45914                 0        18.1135 
   7260         1       29.0643          17.5976   0.000161384        4.43322                 0        18.0106 
   7280         1       29.4158          17.5494   0.000161298        4.40492                 0        17.9092 
   7300         1       29.7663          17.4909   0.000161203         4.3743                 0        17.8093 
   7320         1       30.1154          17.4222     0.0001611        4.34142                 0         17.711 
   7340         1       30.4631          17.3434   0.000160989        4.30636                 0        17.6143 
   7360         1       30.8091          17.2546   0.000160871        4.26918                 0        17.5192 
   7380         1       31.1532          17.1562   0.000160746        4.22998                 0        17.4258 
   7400         1       31.4953          17.0484   0.000160616        4.18884                 0        17.3341 
   7420         1       31.8351          16.9313    0.00016048        4.14585                 0        17.2441 
   7440         1       32.1725          16.8053   0.000160339        4.10109                 0        17.1557 
   7460         1       32.5072          16.6707   0.000160194        4.05467                 0        17.0691 
   7480         1       32.8393          16.5278   0.000160046        4.00669                 0        16.9843 
   7500         1       33.1683           16.377   0.000159894        3.95724                 0        16.9011 
   7520         1       33.4943          16.2186   0.000159739        3.90643                 0        16.8197 
   7540         1        33.817           16.053   0.000159583        3.85436                 0        16.7401 
   7560         1       34.1364          15.8806   0.000159425        3.80113                 0        16.6621 
   7580         1       34.4522          15.7018   0.000159266        3.74686                 0         16.586 
   7600         1       34.7644           15.517   0.000159107        3.69165                 0        16.5115 
   7620         1       35.0728          15.3266   0.000158947        3.63559                 0        16.4388 
   7640         1       35.3774          15.1311   0.000158788         3.5788                 0        16.3678 
   7660         1       35.6781           14.931    0.00015863        3.52138                 0        16.2985 
   7680         1       35.9746          14.7265   0.000158474        3.46342                 0        16.2309 
   7700         1       36.2671          14.5183   0.000158319        3.40504                 0         16.165 
   7720         1       36.5554          14.3066   0.000158166        3.34631                 0        16.1007 
   7740         1       36.8394           14.092   0.000158016        3.28735                 0        16.0381 
   7760         1        37.119          13.8748   0.000157868        3.22823                 0         15.977 
   7780         1       37.3943          13.6554   0.000157724        3.16904                 0        15.9176 
   7800         1       37.6652          13.4343   0.000157583        3.10988                 0        15.8598 
   7820         1       37.9317          13.2119   0.000157446        3.05082                 0        15.8035 
   7840         1       38.1937          12.9885   0.000157313        2.99195                 0        15.7488 
   7860         1       38.4512          12.7646   0.000157185        2.93332                 0        15.6956 
   7880         1       38.7043          12.5403   0.000157061        2.87502                 0        15.6438 
   7900         1       38.9529          12.3162   0.000156941        2.81711                 0        15.5935 
   7920         1        39.197          12.0925   0.000156827        2.75966                 0        15.5446 
   7940         1       39.4366          11.8696   0.000156718        2.70271                 0        15.4972 
   7960         1       39.6717          11.6476   0.000156613        2.64634                 0        15.4511 
   7980         1       39.9025           11.427   0.000156515        2.59057                 0        15.4063 
   8000         1       40.1288           11.208   0.000156421        2.53547                 0        15.3629 
   8020         1       40.3508          10.9908   0.000156334        2.48108                 0        15.3207 
   8040         1       40.5685          10.7756   0.000156251        2.42743                 0        15.2798 
   8060         1       40.7819          10.5627   0.000156175        2.37457                 0        15.2402 
   8080         1        40.991          10.3523   0.000156104        2.32251                 0        15.2017 
   8100         1        41.196          10.1445   0.000156039         2.2713                 0        15.1644 
   8120         1       41.3968          9.93944    0.00015598        2.22095                 0        15.1282 
   8140         1       41.5936          9.73738   0.000155927        2.17149                 0        15.0932 
   8160         1       41.7863           9.5384    0.00015588        2.12294                 0        15.0592 
   8180         1       41.9751          9.34263   0.000155838        2.07531                 0        15.0263 
   8200         1       42.1601          9.15017   0.000155802        2.02861                 0        14.9944 
   8220         1       42.3412          8.96111   0.000155772        1.98286                 0        14.9635 
   8240         1       42.5185          8.77552   0.000155748        1.93807                 0        14.9336 
   8260         1       42.6922          8.59348    0.00015573        1.89423                 0        14.9046 
   8280         1       42.8623          8.41505   0.000155717        1.85135                 0        14.8766 
   8300         1       43.0289          8.24026   0.000155709        1.80944                 0        14.8494 
   8320         1       43.1919          8.06915   0.000155708        1.76849                 0        14.8231 
   8340         1       43.3516          7.90174   0.000155711        1.72851                 0        14.7976 
   8360         1        43.508          7.73806    0.00015572        1.68947                 0         14.773 
   8380         1       43.6612           7.5781   0.000155734        1.65139                 0        14.7491 
   8400         1       43.8112          7.42186   0.000155754        1.61425                 0         14.726 
   8420         1       43.9581          7.26933   0.000155779        1.57805                 0        14.7037 
   8440         1        44.102          7.12051   0.000155808        1.54277                 0        14.6821 
   8460         1       44.2429          6.97535   0.000155843        1.50841                 0        14.6612 
   8480         1        44.381          6.83385   0.000155882        1.47494                 0        14.6409 
   8500         1       44.5163          6.69596   0.000155927        1.44237                 0        14.6213 
   8520         1       44.6489          6.56165   0.000155976        1.41068                 0        14.6024 
   8540         1       44.7788          6.43087   0.000156029        1.37985                 0         14.584 
   8560         1       44.9062          6.30358   0.000156087        1.34986                 0        14.5663 
   8580         1        45.031          6.17972   0.000156149        1.32071                 0        14.5491 
   8600         1       45.1534          6.05925   0.000156216        1.29238                 0        14.5325 
   8620         1       45.2734          5.94212   0.000156287        1.26485                 0        14.5164 
   8640         1       45.3911          5.82825   0.000156362         1.2381                 0        14.5009 
   8660         1       45.5065          5.71759    0.00015644        1.21213                 0        14.4858 
   8680         1       45.6198          5.61009   0.000156523        1.18691                 0        14.4713 
   8700         1        45.731          5.50567   0.000156609        1.16242                 0        14.4572 
   8720         1         45.84          5.40428     0.0001567        1.13865                 0        14.4436 
   8740         1       45.9471          5.30584   0.000156793        1.11559                 0        14.4304 
   8760         1       46.0523           5.2103   0.000156891        1.09322                 0        14.4176 
   8780         1       46.1556          5.11759   0.000156991        1.07151                 0        14.4053 
   8800         1        46.257          5.02764   0.000157095        1.05045                 0        14.3934 
   8820         1       46.3567          4.94038   0.000157202        1.03004                 0        14.3818 
   8840         1       46.4547          4.85575   0.000157313        1.01024                 0        14.3706 
   8860         1       46.5509          4.77369   0.000157426       0.991048                 0        14.3598 
   8880         1       46.6456          4.69412   0.000157542       0.972443                 0        14.3493 
   8900         1       46.7387          4.61699   0.000157661       0.954411                 0        14.3392 
   8920         1       46.8303          4.54223   0.000157783       0.936937                 0        14.3294 
   8940         1       46.9204          4.46977   0.000157908       0.920003                 0        14.3199 
   8960         1       47.0091          4.39955   0.000158035       0.903596                 0        14.3107 
   8980         1       47.0964          4.33151   0.000158165         0.8877                 0        14.3018 
   9000         1       47.1824          4.26559   0.000158297       0.872301                 0        14.2932 
   9020         1       47.2671          4.20172   0.000158432       0.857385                 0        14.2849 
   9040         1       47.3505          4.13986   0.000158569       0.842938                 0        14.2768 
   9060         1       47.4327          4.07993   0.000158708       0.828947                 0         14.269 
   9080         1       47.5137           4.0219    0.00015885       0.815397                 0        14.2615 
   9100         1       47.5936          3.96569   0.000158994       0.802277                 0        14.2541 
   9120         1       47.6723          3.91125   0.000159139       0.789572                 0         14.247 
   9140         1         47.75          3.85854   0.000159287       0.777272                 0        14.2402 
   9160         1       47.8267          3.80749   0.000159437       0.765363                 0        14.2335 
   9180         1       47.9023          3.75806   0.000159588       0.753834                 0        14.2271 
   9200         1        47.977           3.7102   0.000159741       0.742674                 0        14.2209 
   9220         1       48.0508          3.66387   0.000159896        0.73187                 0        14.2148 
   9240         1       48.1236            3.619   0.000160053       0.721413                 0         14.209 
   9260         1       48.1955          3.57556   0.000160212       0.711291                 0        14.2033 
   9280         1       48.2666           3.5335   0.000160372       0.701495                 0        14.1978 
   9300         1       48.3369          3.49279   0.000160533       0.692013                 0        14.1925 
   9320         1       48.4063          3.45336   0.000160696       0.682837                 0        14.1873 
   9340         1        48.475           3.4152   0.000160861       0.673957                 0        14.1823 
   9360         1       48.5429          3.37824   0.000161027       0.665363                 0        14.1775 
   9380         1       48.6102          3.34247   0.000161194       0.657047                 0        14.1728 
   9400         1       48.6767          3.30783   0.000161362       0.648999                 0        14.1682 
   9420         1       48.7425          3.27429   0.000161532       0.641213                 0        14.1638 
   9440         1       48.8076          3.24182   0.000161703       0.633678                 0        14.1595 
   9460         1       48.8722          3.21038   0.000161875       0.626388                 0        14.1554 
   9480         1       48.9361          3.17994   0.000162049       0.619334                 0        14.1513 
   9500         1       48.9994          3.15047   0.000162223       0.612509                 0        14.1474 
   9520         1       49.0621          3.12193   0.000162399       0.605907                 0        14.1437 
   9540         1       49.1242          3.09429   0.000162575       0.599519                 0          14.14 
   9560         1       49.1859          3.06752   0.000162753       0.593339                 0        14.1364 
   9580         1       49.2469           3.0416   0.000162931       0.587361                 0         14.133 
   9600         1       49.3075           3.0165   0.000163111       0.581577                 0        14.1296 
   9620         1       49.3676          2.99219   0.000163291       0.575982                 0        14.1264 
   9640         1       49.4272          2.96864   0.000163472        0.57057                 0        14.1232 
   9660         1       49.4864          2.94583   0.000163654       0.565336                 0        14.1202 
   9680         1       49.5451          2.92374   0.000163837       0.560273                 0        14.1172 
   9700         1       49.6033          2.90234   0.000164021       0.555375                 0        14.1143 
   9720         1       49.6612          2.88161   0.000164205       0.550639                 0        14.1115 
   9740         1       49.7186          2.86152    0.00016439       0.546058                 0        14.1088 
   9760         1       49.7756          2.84206   0.000164576       0.541628                 0        14.1062 
   9780         1       49.8323           2.8232   0.000164763       0.537343                 0        14.1036 
   9800         1       49.8886          2.80493    0.00016495         0.5332                 0        14.1011 
   9820         1       49.9445          2.78722   0.000165137       0.529194                 0        14.0987 
   9840         1       50.0001          2.77006   0.000165326        0.52532                 0        14.0964 
   9860         1       50.0553          2.75343   0.000165515       0.521574                 0        14.0941 
   9880         1       50.1102          2.73731   0.000165704       0.517952                 0        14.0919 
   9900         1       50.1648          2.72168   0.000165894       0.514451                 0        14.0897 
   9920         1       50.2191          2.70653   0.000166085       0.511066                 0        14.0876 
   9940         1        50.273          2.69185   0.000166276       0.507794                 0        14.0856 
   9960         1       50.3267           2.6776   0.000166468       0.504632                 0        14.0837 
   9980         1       50.3802           2.6638    0.00016666       0.501575                 0        14.0817 
  10000         1       50.4333           2.6504   0.000166852        0.49862                 0        14.0799 
  10020         1       50.4862          2.63742   0.000167045       0.495765                 0        14.0781 
  10040         1       50.5388          2.62482   0.000167238       0.493006                 0        14.0763 
  10060         1       50.5912           2.6126   0.000167432        0.49034                 0        14.0746 
  10080         1       50.6433          2.60075   0.000167626       0.487765                 0        14.0729 
  10100         1       50.6952          2.58925   0.000167821       0.485277                 0        14.0713 
  10120         1       50.7469          2.57809   0.000168016       0.482873                 0        14.0698 
  10140         1       50.7983          2.56726   0.000168211       0.480552                 0        14.0682 
  10160         1       50.8496          2.55675   0.000168407        0.47831                 0        14.0668 
  10180         1       50.9006          2.54655   0.000168602       0.476145                 0        14.0653 
  10200         1       50.9514          2.53665   0.000168799       0.474055                 0        14.0639 
  10220         1       51.0021          2.52704   0.000168995       0.472037                 0        14.0625 
  10240         1       51.0525          2.51771   0.000169192       0.470089                 0        14.0612 
  10260         1       51.1028          2.50865   0.000169389       0.468209                 0        14.0599 
  10280         1       51.1529          2.49985   0.000169586       0.466395                 0        14.0587 
  10300         1       51.2028           2.4913   0.000169783       0.464645                 0        14.0574 
  10320         1       51.2525            2.483   0.000169981       0.462957                 0        14.0563 
  10340         1       51.3021          2.47493   0.000170179       0.461329                 0        14.0551 
  10360         1       51.3515           2.4671   0.000170377       0.459759                 0         14.054 
  10380         1       51.4008          2.45949   0.000170576       0.458245                 0        14.0529 
  10400         1       51.4499          2.45209   0.000170774       0.456786                 0        14.0518 
  10420         1       51.4989           2.4449   0.000170973        0.45538                 0        14.0508 
  10440         1       51.5477          2.43791   0.000171172       0.454025                 0        14.0498 
  10460         1       51.5964          2.43111   0.000171371        0.45272                 0        14.0488 
  10480         1       51.6449           2.4245    0.00017157       0.451464                 0        14.0478 
  10500         1       51.6934          2.41808    0.00017177       0.450254                 0        14.0469 
  10520         1       51.7417          2.41183   0.000171969        0.44909                 0         14.046 
  10540         1       51.7898          2.40575   0.000172169        0.44797                 0        14.0451 
  10560         1       51.8379          2.39984   0.000172369       0.446893                 0        14.0442 
  10580         1       51.8858          2.39408   0.000172569       0.445857                 0        14.0434 
  10600         1       51.9337          2.38849   0.000172769       0.444862                 0        14.0425 
  10620         1       51.9814          2.38304   0.000172969       0.443906                 0        14.0417 
  10640         1        52.029          2.37773   0.000173169       0.442987                 0         14.041 
  10660         1       52.0765          2.37257    0.00017337       0.442105                 0        14.0402 
  10680         1       52.1239          2.36754    0.00017357       0.441259                 0        14.0395 
  10700         1       52.1712          2.36264   0.000173771       0.440448                 0        14.0388 
  10720         1       52.2184          2.35787   0.000173972        0.43967                 0         14.038 
  10740         1       52.2655          2.35323   0.000174172       0.438925                 0        14.0374 
  10760         1       52.3125           2.3487   0.000174373       0.438212                 0        14.0367 
  10780         1       52.3594          2.34429   0.000174574       0.437529                 0         14.036 
  10800         1       52.4063          2.33999   0.000174775       0.436876                 0        14.0354 
  10820         1       52.4531           2.3358   0.000174976       0.436253                 0        14.0348 
  10840         1       52.4997          2.33171   0.000175177       0.435657                 0        14.0342 
  10860         1       52.5463          2.32773   0.000175378       0.435089                 0        14.0336 
  10880         1       52.5928          2.32384   0.000175579       0.434547                 0         14.033 
  10900         1       52.6393          2.32005    0.00017578       0.434031                 0        14.0325 
  10920         1       52.6856          2.31635   0.000175981       0.433539                 0        14.0319 
  10940         1       52.7319          2.31274   0.000176183       0.433073                 0        14.0314 
  10960         1       52.7781          2.30922   0.000176384        0.43263                 0        14.0309 
  10980         1       52.8243          2.30578   0.000176585       0.432209                 0        14.0304 
  11000         1       52.8704          2.30242   0.000176786       0.431811                 0        14.0299 
  11020         1       52.9164          2.29914   0.000176988       0.431435                 0        14.0294 
  11040         1       52.9623          2.29594   0.000177189        0.43108                 0        14.0289 
  11060         1       53.0082          2.29281    0.00017739       0.430745                 0        14.0285 
  11080         1       53.0541          2.28975   0.000177592        0.43043                 0         14.028 
  11100         1       53.0998          2.28676   0.000177793       0.430134                 0        14.0276 
  11120         1       53.1455          2.28384   0.000177994       0.429857                 0        14.0271 
  11140         1       53.1912          2.28098   0.000178196       0.429598                 0        14.0267 
  11160         1       53.2368          2.27818   0.000178397       0.429357                 0        14.0263 
  11180         1       53.2823          2.27545   0.000178598       0.429133                 0        14.0259 
  11200         1       53.3278          2.27278   0.000178799       0.428926                 0        14.0255 
  11220         1       53.3732          2.27016   0.000179001       0.428735                 0        14.0252 
  11240         1       53.4186           2.2676   0.000179202        0.42856                 0        14.0248 
  11260         1       53.4639          2.26509   0.000179403         0.4284                 0        14.0244 
  11280         1       53.5092          2.26263   0.000179604       0.428255                 0        14.0241 
  11300         1       53.5544          2.26023   0.000179806       0.428124                 0        14.0237 
  11320         1       53.5996          2.25787   0.000180007       0.428008                 0        14.0234 
  11340         1       53.6447          2.25556   0.000180208       0.427906                 0        14.0231 
  11360         1       53.6898           2.2533   0.000180409       0.427817                 0        14.0227 
  11380         1       53.7349          2.25108    0.00018061        0.42774                 0        14.0224 
  11400         1       53.7799           2.2489   0.000180811       0.427677                 0        14.0221 
  11420         1       53.8248          2.24676   0.000181012       0.427625                 0        14.0218 
  11440         1       53.8697          2.24467   0.000181213       0.427586                 0        14.0215 
  11460         1       53.9146          2.24261   0.000181414       0.427558                 0        14.0212 
  11480         1       53.9594           2.2406   0.000181615       0.427542                 0        14.0209 
  11500         1       54.0042          2.23862   0.000181816       0.427537                 0        14.0207 
  11520         1        54.049          2.23667   0.000182016       0.427542                 0        14.0204 
  11540         1       54.0937          2.23476   0.000182217       0.427557                 0        14.0201 
  11560         1       54.1384          2.23288   0.000182418       0.427583                 0        14.0199 
  11580         1        54.183          2.23104   0.000182618       0.427619                 0        14.0196 
  11600         1       54.2276          2.22922   0.000182819       0.427664                 0        14.0194 
  11620         1       54.2722          2.22744   0.000183019       0.427719                 0        14.0192 
  11640         1       54.3167          2.22569    0.00018322       0.427782                 0        14.0189 
  11660         1       54.3612          2.22396    0.00018342       0.427855                 0        14.0187 
  11680         1       54.4057          2.22226   0.000183621       0.427936                 0        14.0185 
  11700         1       54.4501          2.22059   0.000183821       0.428025                 0        14.0182 
  11720         1       54.4945          2.21895   0.000184021       0.428123                 0         14.018 
  11740         1       54.5389          2.21733   0.000184221       0.428228                 0        14.0178 
  11760         1       54.5832          2.21573   0.000184421       0.428341                 0        14.0176 
  11780         1       54.6275          2.21416   0.000184621       0.428462                 0        14.0174 
  11800         1       54.6718          2.21261   0.000184821        0.42859                 0        14.0172 
  11820         1        54.716          2.21108   0.000185021       0.428726                 0         14.017 
  11840         1       54.7602          2.20957   0.000185221       0.428868                 0        14.0168 
  11860         1       54.8044          2.20809   0.000185421       0.429017                 0        14.0167 
  11880         1       54.8485          2.20662   0.000185621       0.429172                 0        14.0165 
  11900         1       54.8927          2.20518    0.00018582       0.429334                 0        14.0163 
  11920         1       54.9367          2.20375    0.00018602       0.429502                 0        14.0161 
  11940         1       54.9808          2.20234   0.000186219       0.429676                 0         14.016 
  11960         1       55.0248          2.20095   0.000186419       0.429856                 0        14.0158 
  11980         1       55.0688          2.19958   0.000186618       0.430042                 0        14.0156 
  12000         1       55.1128          2.19822   0.000186817       0.430234                 0        14.0155 
  12020         1       55.1568          2.19688   0.000187017       0.430431                 0        14.0153 
  12040         1       55.2007          2.19555   0.000187216       0.430633                 0        14.0152 
  12060         1       55.2446          2.19424   0.000187415       0.430841                 0         14.015 
  12080         1       55.2885          2.19295   0.000187614       0.431053                 0        14.0149 
  12100         1       55.3323          2.19167   0.000187813       0.431271                 0        14.0147 
  12120         1       55.3761           2.1904   0.000188011       0.431493                 0        14.0146 
  12140         1       55.4199          2.18914    0.00018821        0.43172                 0        14.0145 
  12160         1       55.4637           2.1879   0.000188409       0.431951                 0        14.0143 
  12180         1       55.5074          2.18667   0.000188607       0.432187                 0        14.0142 
  12200         1       55.5512          2.18545   0.000188806       0.432427                 0        14.0141 
  12220         1       55.5949          2.18424   0.000189004       0.432672                 0        14.0139 
  12240         1       55.6385          2.18305   0.000189203       0.432921                 0        14.0138 
  12260         1       55.6822          2.18186   0.000189401       0.433173                 0        14.0137 
  12280         1       55.7258          2.18069   0.000189599        0.43343                 0        14.0136 
  12300         1       55.7694          2.17953   0.000189797        0.43369                 0        14.0135 
  12320         1        55.813          2.17837   0.000189995       0.433954                 0        14.0133 
  12340         1       55.8565          2.17723   0.000190193       0.434222                 0        14.0132 
  12360         1       55.9001          2.17609   0.000190391       0.434493                 0        14.0131 
  12380         1       55.9436          2.17497   0.000190589       0.434767                 0         14.013 
  12400         1       55.9871          2.17385   0.000190786       0.435045                 0        14.0129 
  12420         1       56.0305          2.17274   0.000190984       0.435326                 0        14.0128 
  12440         1        56.074          2.17164   0.000191181       0.435611                 0        14.0127 
  12460         1       56.1174          2.17054   0.000191379       0.435898                 0        14.0126 
  12480         1       56.1608          2.16946   0.000191576       0.436189                 0        14.0125 
  12500         1       56.2042          2.16838   0.000191773       0.436482                 0        14.0124 
  12520         1       56.2475          2.16731   0.000191971       0.436778                 0        14.0123 
  12540         1       56.2909          2.16624   0.000192168       0.437077                 0        14.0122 
  12560         1       56.3342          2.16518   0.000192365       0.437379                 0        14.0121 
  12580         1       56.3775          2.16413   0.000192562       0.437684                 0         14.012 
  12600         1       56.4208          2.16308   0.000192758       0.437991                 0         14.012 
  12620         1        56.464          2.16204   0.000192955         0.4383                 0        14.0119 
  12640         1       56.5072          2.16101   0.000193152       0.438612                 0        14.0118 
  12660         1       56.5504          2.15998   0.000193348       0.438927                 0        14.0117 
  12680         1       56.5936          2.15895   0.000193545       0.439244                 0        14.0116 
  12700         1       56.6368          2.15793   0.000193741       0.439563                 0        14.0116 
  12720         1         56.68          2.15692   0.000193937       0.439884                 0        14.0115 
  12740         1       56.7231          2.15591   0.000194134       0.440207                 0        14.0114 
  12760         1       56.7662           2.1549    0.00019433       0.440533                 0        14.0113 
  12780         1       56.8093           2.1539   0.000194526       0.440861                 0        14.0113 
  12800         1       56.8523          2.15291   0.000194722        0.44119                 0        14.0112 
  12820         1       56.8954          2.15191   0.000194918       0.441522                 0        14.0111 
  12840         1       56.9384          2.15092   0.000195113       0.441855                 0         14.011 
  12860         1       56.9814          2.14994   0.000195309       0.442191                 0         14.011 
  12880         1       57.0244          2.14896   0.000195504       0.442528                 0        14.0109 
  12900         1       57.0674          2.14798     0.0001957       0.442867                 0        14.0108 
  12920         1       57.1103          2.14701   0.000195895       0.443208                 0        14.0108 
  12940         1       57.1533          2.14603   0.000196091        0.44355                 0        14.0107 
  12960         1       57.1962          2.14507   0.000196286       0.443894                 0        14.0107 
  12980         1       57.2391           2.1441   0.000196481        0.44424                 0        14.0106 
  13000         1       57.2819          2.14314   0.000196676       0.444587                 0        14.0105 
  13020         1       57.3248          2.14218   0.000196871       0.444936                 0        14.0105 
  13040         1       57.3676          2.14122   0.000197066       0.445286                 0        14.0104 
  13060         1       57.4104          2.14027   0.000197261       0.445638                 0        14.0104 
  13080         1       57.4532          2.13932   0.000197455       0.445991                 0        14.0103 
  13100         1        57.496          2.13837    0.00019765       0.446345                 0        14.0103 
  13120         1       57.5388          2.13742   0.000197844       0.446701                 0        14.0102 
  13140         1       57.5815          2.13647   0.000198039       0.447058                 0        14.0102 
  13160         1       57.6242          2.13553   0.000198233       0.447417                 0        14.0101 
  13180         1       57.6669          2.13459   0.000198427       0.447776                 0        14.0101 
  13200         1       57.7096          2.13365   0.000198621       0.448137                 0          14.01 
  13220         1       57.7523          2.13271   0.000198815       0.448499                 0          14.01 
  13240         1       57.7949          2.13178   0.000199009       0.448862                 0        14.0099 
  13260         1       57.8376          2.13084   0.000199203       0.449226                 0        14.0099 
  13280         1       57.8802          2.12991   0.000199397       0.449592                 0        14.0098 
  13300         1       57.9228          2.12898    0.00019959       0.449958                 0        14.0098 
  13320         1       57.9653          2.12805   0.000199784       0.450326                 0        14.0097 
  13340         1       58.0079          2.12712   0.000199977       0.450694                 0        14.0097 
  13360         1       58.0504          2.12619   0.000200171       0.451064                 0        14.0096 
  13380         1       58.0929          2.12527   0.000200364       0.451434                 0        14.0096 
  13400         1       58.1354          2.12434   0.000200557       0.451806                 0        14.0096 
  13420         1       58.1779          2.12342    0.00020075       0.452178                 0        14.0095 
  13440         1       58.2204           2.1225   0.000200943       0.452551                 0        14.0095 
  13460         1       58.2628          2.12157   0.000201136       0.452925                 0        14.0094 
  13480         1       58.3052          2.12065   0.000201329         0.4533                 0        14.0094 
  13500         1       58.3476          2.11973   0.000201522       0.453676                 0        14.0094 
  13520         1         58.39          2.11881   0.000201715       0.454052                 0        14.0093 
  13540         1       58.4324           2.1179   0.000201907        0.45443                 0        14.0093 
  13560         1       58.4747          2.11698     0.0002021       0.454808                 0        14.0092 
  13580         1       58.5171          2.11606   0.000202292       0.455187                 0        14.0092 
  13600         1       58.5594          2.11515   0.000202484       0.455566                 0        14.0092 
  13620         1       58.6017          2.11423   0.000202676       0.455946                 0        14.0091 
  13640         1       58.6439          2.11332   0.000202869       0.456327                 0        14.0091 
  13660         1       58.6862           2.1124   0.000203061       0.456709                 0        14.0091 
  13680         1       58.7284          2.11149   0.000203253       0.457091                 0         14.009 
  13700         1       58.7707          2.11057   0.000203444       0.457474                 0         14.009 
  13720         1       58.8129          2.10966   0.000203636       0.457858                 0         14.009 
  13740         1        58.855          2.10875   0.000203828       0.458242                 0        14.0089 
  13760         1       58.8972          2.10784   0.000204019       0.458626                 0        14.0089 
  13780         1       58.9394          2.10692   0.000204211       0.459012                 0        14.0089 
  13800         1       58.9815          2.10601   0.000204402       0.459397                 0        14.0089 
  13820         1       59.0236           2.1051   0.000204593       0.459784                 0        14.0088 
  13840         1       59.0657          2.10419   0.000204785       0.460171                 0        14.0088 
  13860         1       59.1078          2.10328   0.000204976       0.460558                 0        14.0088 
  13880         1       59.1498          2.10237   0.000205167       0.460946                 0        14.0087 
  13900         1       59.1919          2.10146   0.000205358       0.461334                 0        14.0087 
  13920         1       59.2339          2.10055   0.000205549       0.461723                 0        14.0087 
  13940         1       59.2759          2.09964   0.000205739       0.462112                 0        14.0087 
  13960         1       59.3179          2.09873    0.00020593       0.462502                 0        14.0086 
  13980         1       59.3598          2.09782    0.00020612       0.462892                 0        14.0086 
  14000         1       59.4018          2.09691   0.000206311       0.463282                 0        14.0086 
  14020         1       59.4437            2.096   0.000206501       0.463673                 0        14.0086 
  14040         1       59.4856          2.09509   0.000206692       0.464065                 0        14.0085 
  14060         1       59.5275          2.09418   0.000206882       0.464456                 0        14.0085 
  14080         1       59.5694          2.09327   0.000207072       0.464849                 0        14.0085 
  14100         1       59.6112          2.09236   0.000207262       0.465241                 0        14.0085 
  14120         1       59.6531          2.09145   0.000207452       0.465634                 0        14.0084 
  14140         1       59.6949          2.09054   0.000207642       0.466027                 0        14.0084 
  14160         1       59.7367          2.08963   0.000207831        0.46642                 0        14.0084 
  14180         1       59.7785          2.08872   0.000208021       0.466814                 0        14.0084 
  14200         1       59.8202          2.08781   0.000208211       0.467208                 0        14.0084 
  14220         1        59.862           2.0869     0.0002084       0.467603                 0        14.0083 
  14240         1       59.9037          2.08599    0.00020859       0.467997                 0        14.0083 
  14260         1       59.9454          2.08508   0.000208779       0.468392                 0        14.0083 
  14280         1       59.9871          2.08417   0.000208968       0.468787                 0        14.0083 
  14300         1       60.0288          2.08326   0.000209157       0.469183                 0        14.0083 
  14320         1       60.0705          2.08235   0.000209346       0.469579                 0        14.0082 
  14340         1       60.1121          2.08144   0.000209535       0.469975                 0        14.0082 
  14360         1       60.1537          2.08053   0.000209724       0.470371                 0        14.0082 
  14380         1       60.1953          2.07961   0.000209913       0.470767                 0        14.0082 
  14400         1       60.2369           2.0787   0.000210102       0.471164                 0        14.0082 
  14420         1       60.2785          2.07779    0.00021029       0.471561                 0        14.0081 
  14440         1         60.32          2.07688   0.000210479       0.471958                 0        14.0081 
  14460         1       60.3615          2.07597   0.000210667       0.472355                 0        14.0081 
  14480         1        60.403          2.07506   0.000210855       0.472753                 0        14.0081 
  14500         1       60.4445          2.07415   0.000211044        0.47315                 0        14.0081 
  14520         1        60.486          2.07324   0.000211232       0.473548                 0        14.0081 
  14540         1       60.5275          2.07232    0.00021142       0.473946                 0         14.008 
  14560         1       60.5689          2.07141   0.000211608       0.474344                 0         14.008 
  14580         1       60.6103           2.0705   0.000211796       0.474743                 0         14.008 
  14600         1       60.6517          2.06959   0.000211984       0.475141                 0         14.008 
  14620         1       60.6931          2.06868   0.000212171        0.47554                 0         14.008 
  14640         1       60.7345          2.06776   0.000212359       0.475938                 0         14.008 
  14660         1       60.7758          2.06685   0.000212547       0.476337                 0        14.0079 
  14680         1       60.8171          2.06594   0.000212734       0.476736                 0        14.0079 
  14700         1       60.8585          2.06503   0.000212921       0.477136                 0        14.0079 
  14720         1       60.8997          2.06411   0.000213109       0.477535                 0        14.0079 
  14740         1        60.941           2.0632   0.000213296       0.477934                 0        14.0079 
  14760         1       60.9823          2.06229   0.000213483       0.478334                 0        14.0079 
  14780         1       61.0235          2.06138    0.00021367       0.478733                 0        14.0079 
  14800         1       61.0647          2.06046   0.000213857       0.479133                 0        14.0078 
  14820         1       61.1059          2.05955   0.000214044       0.479533                 0        14.0078 
  14840         1       61.1471          2.05864   0.000214231       0.479933                 0        14.0078 
  14860         1       61.1883          2.05772   0.000214417       0.480333                 0        14.0078 
  14880         1       61.2294          2.05681   0.000214604       0.480733                 0        14.0078 
  14900         1       61.2705           2.0559   0.000214791       0.481133                 0        14.0078 
  14920         1       61.3117          2.05498   0.000214977       0.481533                 0        14.0078 
  14940         1       61.3527          2.05407   0.000215163       0.481933                 0        14.0078 
  14960         1       61.3938          2.05316    0.00021535       0.482333                 0        14.0077 
  14980         1       61.4349          2.05224   0.000215536       0.482734                 0        14.0077 
  15000         1       61.4759          2.05133   0.000215722       0.483134                 0        14.0077 
  15020         1       61.5169          2.05042   0.000215908       0.483535                 0        14.0077 
  15040         1       61.5579           2.0495   0.000216094       0.483935                 0        14.0077 
  15060         1       61.5989          2.04859    0.00021628       0.484336                 0        14.0077 
  15080         1       61.6399          2.04768   0.000216465       0.484736                 0        14.0077 
  15100         1       61.6808          2.04676   0.000216651       0.485137                 0        14.0077 
  15120         1       61.7217          2.04585   0.000216837       0.485537                 0        14.0077 
  15140         1       61.7626          2.04494   0.000217022       0.485938                 0        14.0076 
  15160         1       61.8035          2.04402   0.000217208       0.486339                 0        14.0076 
  15180         1       61.8444          2.04311   0.000217393       0.486739                 0        14.0076 
  15200         1       61.8853           2.0422   0.000217578        0.48714                 0        14.0076 
  15220         1       61.9261          2.04128   0.000217763       0.487541                 0        14.0076 
  15240         1       61.9669          2.04037   0.000217948       0.487942                 0        14.0076 
  15260         1       62.0077          2.03946   0.000218133       0.488342                 0        14.0076 
  15280         1       62.0485          2.03855   0.000218318       0.488743                 0        14.0076 
  15300         1       62.0893          2.03763   0.000218503       0.489144                 0        14.0076 
  15320         1         62.13          2.03672   0.000218688       0.489545                 0        14.0076 
  15340         1       62.1707          2.03581   0.000218873       0.489945                 0        14.0075 
  15360         1       62.2114           2.0349   0.000219057       0.490346                 0        14.0075 
  15380         1       62.2521          2.03398   0.000219242       0.490747                 0        14.0075 
  15400         1       62.2928          2.03307   0.000219426       0.491147                 0        14.0075 
  15420         1       62.3334          2.03216    0.00021961       0.491548                 0        14.0075 
  15440         1       62.3741          2.03125   0.000219795       0.491949                 0        14.0075 
  15460         1       62.4147          2.03034   0.000219979       0.492349                 0        14.0075 
  15480         1       62.4553          2.02943   0.000220163        0.49275                 0        14.0075 
  15500         1       62.4959          2.02852   0.000220347       0.493151                 0        14.0075 
  15520         1       62.5364          2.02761   0.000220531       0.493551                 0        14.0075 
  15540         1        62.577           2.0267   0.000220715       0.493952                 0        14.0075 
  15560         1       62.6175          2.02579   0.000220899       0.494352                 0        14.0075 
  15580         1        62.658          2.02488   0.000221082       0.494753                 0        14.0074 
  15600         1       62.6985          2.02397   0.000221266       0.495153                 0        14.0074 
  15620         1        62.739          2.02306   0.000221449       0.495553                 0        14.0074 
  15640         1       62.7794          2.02215   0.000221633       0.495954                 0        14.0074 
  15660         1       62.8198          2.02124   0.000221816       0.496354                 0        14.0074 
  15680         1       62.8603          2.02034   0.000221999       0.496754                 0        14.0074 
  15700         1       62.9007          2.01943   0.000222183       0.497154                 0        14.0074 
  15720         1        62.941          2.01852   0.000222366       0.497555                 0        14.0074 
  15740         1       62.9814          2.01762   0.000222549       0.497955                 0        14.0074 
  15760         1       63.0217          2.01671   0.000222732       0.498355                 0        14.0074 
  15780         1       63.0621          2.01581   0.000222915       0.498755                 0        14.0074 
  15800         1       63.1024           2.0149   0.000223097       0.499155                 0        14.0074 
  15820         1       63.1427            2.014    0.00022328       0.499555                 0        14.0074 
  15840         1       63.1829          2.01309   0.000223463       0.499954                 0        14.0074 
  15860         1       63.2232          2.01219   0.000223645       0.500354                 0        14.0073 
  15880         1       63.2634          2.01129   0.000223828       0.500754                 0        14.0073 
  15900         1       63.3036          2.01038    0.00022401       0.501153                 0        14.0073 
  15920         1       63.3438          2.00948   0.000224193       0.501553                 0        14.0073 
  15940         1        63.384          2.00858   0.000224375       0.501952                 0        14.0073 
  15960         1       63.4242          2.00768   0.000224557       0.502352                 0        14.0073 
  15980         1       63.4643          2.00678   0.000224739       0.502751                 0        14.0073 
  16000         1       63.5045          2.00588   0.000224921        0.50315                 0        14.0073 
  16020         1       63.5446          2.00498   0.000225103        0.50355                 0        14.0073 
  16040         1       63.5847          2.00408   0.000225285       0.503949                 0        14.0073 
  16060         1       63.6247          2.00319   0.000225467       0.504348                 0        14.0073 
  16080         1       63.6648          2.00229   0.000225648       0.504747                 0        14.0073 
  16100         1       63.7048          2.00139    0.00022583       0.505146                 0        14.0073 
  16120         1       63.7448           2.0005   0.000226011       0.505545                 0        14.0073 
  16140         1       63.7848           1.9996   0.000226193       0.505943                 0        14.0073 
  16160         1       63.8248          1.99871   0.000226374       0.506342                 0        14.0073 
  16180         1       63.8648          1.99781   0.000226556        0.50674                 0        14.0073 
  16200         1       63.9047          1.99692   0.000226737       0.507139                 0        14.0072 
  16220         1       63.9447          1.99603   0.000226918       0.507537                 0        14.0072 
  16240         1       63.9846          1.99514   0.000227099       0.507936                 0        14.0072 
  16260         1       64.0245          1.99425    0.00022728       0.508334                 0        14.0072 
  16280         1       64.0643          1.99336   0.000227461       0.508732                 0        14.0072 
  16300         1       64.1042          1.99247   0.000227642        0.50913                 0        14.0072 
  16320         1        64.144          1.99158   0.000227823       0.509528                 0        14.0072 
  16340         1       64.1839           1.9907   0.000228003       0.509926                 0        14.0072 
  16360         1       64.2237          1.98981   0.000228184       0.510324                 0        14.0072 
  16380         1       64.2635          1.98893   0.000228364       0.510721                 0        14.0072 
  16400         1       64.3032          1.98804   0.000228545       0.511119                 0        14.0072 
  16420         1        64.343          1.98716   0.000228725       0.511516                 0        14.0072 
  16440         1       64.3827          1.98628   0.000228905       0.511914                 0        14.0072 
  16460         1       64.4224           1.9854   0.000229086       0.512311                 0        14.0072 
  16480         1       64.4621          1.98452   0.000229266       0.512708                 0        14.0072 
  16500         1       64.5018          1.98364   0.000229446       0.513105                 0        14.0072 
  16520         1       64.5415          1.98276   0.000229626       0.513502                 0        14.0072 
  16540         1       64.5811          1.98188   0.000229806       0.513899                 0        14.0072 
  16560         1       64.6208          1.98101   0.000229986       0.514296                 0        14.0072 
  16580         1       64.6604          1.98013   0.000230165       0.514692                 0        14.0072 
  16600         1          64.7          1.97926   0.000230345       0.515089                 0        14.0072 
  16620         1       64.7395          1.97839   0.000230525       0.515485                 0        14.0071 
  16640         1       64.7791          1.97752   0.000230704       0.515882                 0        14.0071 
  16660         1       64.8186          1.97665   0.000230884       0.516278                 0        14.0071 
  16680         1       64.8582          1.97578   0.000231063       0.516674                 0        14.0071 
  16700         1       64.8977          1.97491   0.000231242        0.51707                 0        14.0071 
  16720         1       64.9372          1.97404   0.000231422       0.517466                 0        14.0071 
  16740         1       64.9766          1.97318   0.000231601       0.517862                 0        14.0071 
  16760         1       65.0161          1.97231    0.00023178       0.518258                 0        14.0071 
  16780         1       65.0555          1.97145   0.000231959       0.518653                 0        14.0071 
  16800         1       65.0949          1.97059   0.000232138       0.519049                 0        14.0071 
  16820         1       65.1343          1.96973   0.000232317       0.519444                 0        14.0071 
  16840         1       65.1737          1.96887   0.000232496       0.519839                 0        14.0071 
  16860         1       65.2131          1.96801   0.000232674       0.520235                 0        14.0071 
  16880         1       65.2525          1.96715   0.000232853        0.52063                 0        14.0071 
  16900         1       65.2918           1.9663   0.000233032       0.521025                 0        14.0071 
  16920         1       65.3311          1.96545    0.00023321       0.521419                 0        14.0071 
  16940         1       65.3704          1.96459   0.000233388       0.521814                 0        14.0071 
  16960         1       65.4097          1.96374   0.000233567       0.522209                 0        14.0071 
  16980         1        65.449          1.96289   0.000233745       0.522603                 0        14.0071 
  17000         1       65.4882          1.96204   0.000233923       0.522997                 0        14.0071 
  17020         1       65.5274           1.9612   0.000234101       0.523392                 0        14.0071 
  17040         1       65.5667          1.96035   0.000234279       0.523786                 0        14.0071 
  17060         1       65.6058          1.95951   0.000234457        0.52418                 0        14.0071 
  17080         1        65.645          1.95867   0.000234635       0.524574                 0        14.0071 
  17100         1       65.6842          1.95783   0.000234813       0.524968                 0        14.0071 
  17120         1       65.7233          1.95699   0.000234991       0.525361                 0        14.0071 
  17140         1       65.7625          1.95615   0.000235169       0.525755                 0        14.0071 
  17160         1       65.8016          1.95531   0.000235346       0.526148                 0        14.0071 
  17180         1       65.8407          1.95448   0.000235524       0.526541                 0        14.0071 
  17200         1       65.8798          1.95365   0.000235701       0.526935                 0         14.007 
  17220         1       65.9188          1.95281   0.000235879       0.527328                 0         14.007 
  17240         1       65.9579          1.95199   0.000236056       0.527721                 0         14.007 
  17260         1       65.9969          1.95116   0.000236233       0.528114                 0         14.007 
  17280         1       66.0359          1.95033   0.000236411       0.528506                 0         14.007 
  17300         1       66.0749          1.94951   0.000236588       0.528899                 0         14.007 
  17320         1       66.1139          1.94868   0.000236765       0.529291                 0         14.007 
  17340         1       66.1529          1.94786   0.000236942       0.529684                 0         14.007 
  17360         1       66.1918          1.94704   0.000237119       0.530076                 0         14.007 
  17380         1       66.2308          1.94623   0.000237295       0.530468                 0         14.007 
  17400         1       66.2697          1.94541   0.000237472        0.53086                 0         14.007 
  17420         1       66.3086           1.9446   0.000237649       0.531252                 0         14.007 
  17440         1       66.3475          1.94378   0.000237826       0.531643                 0         14.007 
  17460         1       66.3863          1.94297   0.000238002       0.532035                 0         14.007 
  17480         1       66.4252          1.94217   0.000238179       0.532427                 0         14.007 
  17500         1        66.464          1.94136   0.000238355       0.532818                 0         14.007 
  17520         1       66.5028          1.94055   0.000238531       0.533209                 0         14.007 
  17540         1       66.5416          1.93975   0.000238708         0.5336                 0         14.007 
  17560         1       66.5804          1.93895   0.000238884       0.533991                 0         14.007 
  17580         1       66.6192          1.93815    0.00023906       0.534382                 0         14.007 
  17600         1       66.6579          1.93735   0.000239236       0.534773                 0         14.007 
  17620         1       66.6967          1.93656   0.000239412       0.535163                 0         14.007 
  17640         1       66.7354          1.93577   0.000239588       0.535554                 0         14.007 
  17660         1       66.7741          1.93498   0.000239764       0.535944                 0         14.007 
  17680         1       66.8128          1.93419   0.000239939       0.536335                 0         14.007 
  17700         1       66.8515           1.9334   0.000240115       0.536725                 0         14.007 
  17720         1       66.8901          1.93261   0.000240291       0.537115                 0         14.007 
  17740         1       66.9288          1.93183   0.000240466       0.537505                 0         14.007 
  17760         1       66.9674          1.93105   0.000240642       0.537894                 0         14.007 
  17780         1        67.006          1.93027   0.000240817       0.538284                 0         14.007 
  17800         1       67.0446           1.9295   0.000240993       0.538673                 0         14.007 
  17820         1       67.0832          1.92872   0.000241168       0.539063                 0         14.007 
  17840         1       67.1218          1.92795   0.000241343       0.539452                 0         14.007 
  17860         1       67.1603          1.92718   0.000241518       0.539841                 0         14.007 
  17880         1       67.1989          1.92641   0.000241693        0.54023                 0         14.007 
  17900         1       67.2374          1.92565   0.000241869       0.540619                 0         14.007 
  17920         1       67.2759          1.92488   0.000242043       0.541008                 0         14.007 
  17940         1       67.3144          1.92412   0.000242218       0.541396                 0         14.007 
  17960         1       67.3529          1.92336   0.000242393       0.541785                 0         14.007 
  17980         1       67.3913          1.92261   0.000242568       0.542173                 0         14.007 
  18000         1       67.4298          1.92185   0.000242743       0.542561                 0         14.007 
  18020         1       67.4682           1.9211   0.000242917       0.542949                 0        14.0069 
  18040         1       67.5066          1.92035   0.000243092       0.543337                 0        14.0069 
  18060         1        67.545           1.9196   0.000243266       0.543725                 0        14.0069 
  18080         1       67.5834          1.91886   0.000243441       0.544113                 0        14.0069 
  18100         1       67.6218          1.91812   0.000243615         0.5445                 0        14.0069 
  18120         1       67.6601          1.91738   0.000243789       0.544888                 0        14.0069 
  18140         1       67.6985          1.91664   0.000243963       0.545275                 0        14.0069 
  18160         1       67.7368           1.9159   0.000244138       0.545662                 0        14.0069 
  18180         1       67.7751          1.91517   0.000244312       0.546049                 0        14.0069 
  18200         1       67.8134          1.91444   0.000244486       0.546436                 0        14.0069 
  18220         1       67.8517          1.91371    0.00024466       0.546823                 0        14.0069 
  18240         1       67.8899          1.91299   0.000244833        0.54721                 0        14.0069 
  18260         1       67.9282          1.91226   0.000245007       0.547596                 0        14.0069 
  18280         1       67.9664          1.91154   0.000245181       0.547983                 0        14.0069 
  18300         1       68.0046          1.91083   0.000245355       0.548369                 0        14.0069 
  18320         1       68.0429          1.91011   0.000245528       0.548755                 0        14.0069 
  18340         1       68.0811           1.9094   0.000245702       0.549141                 0        14.0069 
  18360         1       68.1192          1.90869   0.000245875       0.549527                 0        14.0069 
  18380         1       68.1574          1.90798   0.000246049       0.549913                 0        14.0069 
  18400         1       68.1956          1.90728   0.000246222       0.550298                 0        14.0069 
  18420         1       68.2337          1.90658   0.000246395       0.550684                 0        14.0069 
  18440         1       68.2718          1.90588   0.000246569       0.551069                 0        14.0069 
  18460         1       68.3099          1.90518   0.000246742       0.551454                 0        14.0069 
  18480         1        68.348          1.90449   0.000246915        0.55184                 0        14.0069 
  18500         1       68.3861          1.90379   0.000247088       0.552225                 0        14.0069 
  18520         1       68.4242          1.90311   0.000247261       0.552609                 0        14.0069 
  18540         1       68.4622          1.90242   0.000247434       0.552994                 0        14.0069 
  18560         1       68.5003          1.90174   0.000247606       0.553379                 0        14.0069 
  18580         1       68.5383          1.90106   0.000247779       0.553763                 0        14.0069 
  18600         1       68.5763          1.90038   0.000247952       0.554148                 0        14.0069 
  18620         1       68.6143          1.89971   0.000248124       0.554532                 0        14.0069 
  18640         1       68.6523          1.89904   0.000248297       0.554916                 0        14.0069 
  18660         1       68.6903          1.89837    0.00024847         0.5553                 0        14.0069 
  18680         1       68.7282           1.8977   0.000248642       0.555684                 0        14.0069 
  18700         1       68.7662          1.89704   0.000248814       0.556067                 0        14.0069 
  18720         1       68.8041          1.89638   0.000248987       0.556451                 0        14.0069 
  18740         1        68.842          1.89572   0.000249159       0.556834                 0        14.0069 
  18760         1       68.8799          1.89507   0.000249331       0.557218                 0        14.0069 
  18780         1       68.9178          1.89442   0.000249503       0.557601                 0        14.0069 
  18800         1       68.9557          1.89377   0.000249675       0.557984                 0        14.0069 
  18820         1       68.9936          1.89312   0.000249847       0.558367                 0        14.0069 
  18840         1       69.0314          1.89248   0.000250019        0.55875                 0        14.0069 
  18860         1       69.0693          1.89184   0.000250191       0.559132                 0        14.0069 
  18880         1       69.1071          1.89121   0.000250363       0.559515                 0        14.0069 
  18900         1       69.1449          1.89057   0.000250534       0.559897                 0        14.0069 
  18920         1       69.1827          1.88994   0.000250706        0.56028                 0        14.0069 
  18940         1       69.2205          1.88932   0.000250878       0.560662                 0        14.0069 
  18960         1       69.2583          1.88869   0.000251049       0.561044                 0        14.0069 
  18980         1       69.2961          1.88807   0.000251221       0.561426                 0        14.0069 
  19000         1       69.3338          1.88746   0.000251392       0.561807                 0        14.0069 
  19020         1       69.3716          1.88684   0.000251563       0.562189                 0        14.0069 
  19040         1       69.4093          1.88623   0.000251735       0.562571                 0        14.0069 
  19060         1        69.447          1.88562   0.000251906       0.562952                 0        14.0069 
  19080         1       69.4847          1.88502   0.000252077       0.563333                 0        14.0069 
  19100         1       69.5224          1.88442   0.000252248       0.563714                 0        14.0069 
  19120         1       69.5601          1.88382   0.000252419       0.564095                 0        14.0069 
  19140         1       69.5978          1.88323    0.00025259       0.564476                 0        14.0069 
  19160         1       69.6354          1.88264   0.000252761       0.564857                 0        14.0069 
  19180         1       69.6731          1.88205   0.000252932       0.565238                 0        14.0069 
  19200         1       69.7107          1.88146   0.000253103       0.565618                 0        14.0069 
  19220         1       69.7483          1.88088   0.000253273       0.565998                 0        14.0069 
  19240         1        69.786           1.8803   0.000253444       0.566379                 0        14.0069 
  19260         1       69.8236          1.87973   0.000253615       0.566759                 0        14.0069 
  19280         1       69.8612          1.87916   0.000253785       0.567139                 0        14.0069 
  19300         1       69.8987          1.87859   0.000253956       0.567519                 0        14.0069 
  19320         1       69.9363          1.87803   0.000254126       0.567898                 0        14.0069 
  19340         1       69.9738          1.87747   0.000254296       0.568278                 0        14.0069 
  19360         1       70.0114          1.87691   0.000254467       0.568657                 0        14.0069 
  19380         1       70.0489          1.87636   0.000254637       0.569037                 0        14.0069 
  19400         1       70.0864          1.87581   0.000254807       0.569416                 0        14.0069 
  19420         1        70.124          1.87526   0.000254977       0.569795                 0        14.0069 
  19440         1       70.1615          1.87472   0.000255147       0.570174                 0        14.0069 
  19460         1       70.1989          1.87418   0.000255317       0.570553                 0        14.0069 
  19480         1       70.2364          1.87364   0.000255487       0.570931                 0        14.0068 
  19500         1       70.2739          1.87311   0.000255657        0.57131                 0        14.0068 
  19520         1       70.3113          1.87258   0.000255827       0.571688                 0        14.0068 
  19540         1       70.3488          1.87205   0.000255996       0.572067                 0        14.0068 
  19560         1       70.3862          1.87153   0.000256166       0.572445                 0        14.0068 
  19580         1       70.4237          1.87101   0.000256336       0.572823                 0        14.0068 
  19600         1       70.4611           1.8705   0.000256505       0.573201                 0        14.0068 
  19620         1       70.4985          1.86999   0.000256675       0.573579                 0        14.0068 
  19640         1       70.5359          1.86948   0.000256844       0.573956                 0        14.0068 
  19660         1       70.5733          1.86898   0.000257013       0.574334                 0        14.0068 
  19680         1       70.6106          1.86848   0.000257183       0.574711                 0        14.0068 
  19700         1        70.648          1.86798   0.000257352       0.575089                 0        14.0068 
  19720         1       70.6854          1.86749   0.000257521       0.575466                 0        14.0068 
  19740         1       70.7227            1.867    0.00025769       0.575843                 0        14.0068 
  19760         1         70.76          1.86652   0.000257859        0.57622                 0        14.0068 
  19780         1       70.7974          1.86604   0.000258028       0.576597                 0        14.0068 
  19800         1       70.8347          1.86556   0.000258197       0.576973                 0        14.0068 
  19820         1        70.872          1.86509   0.000258366        0.57735                 0        14.0068 
  19840         1       70.9093          1.86462   0.000258535       0.577726                 0        14.0068 
  19860         1       70.9466          1.86416   0.000258704       0.578103                 0        14.0068 
  19880         1       70.9838           1.8637   0.000258872       0.578479                 0        14.0068 
  19900         1       71.0211          1.86324   0.000259041       0.578855                 0        14.0068 
  19920         1       71.0584          1.86279    0.00025921       0.579231                 0        14.0068 
  19940         1       71.0956          1.86234   0.000259378       0.579606                 0        14.0068 
  19960         1       71.1329          1.86189   0.000259546       0.579982                 0        14.0068 
  19980         1       71.1701          1.86145   0.000259715       0.580358                 0        14.0068 
  20000         1       71.2073          1.86101   0.000259883       0.580733                 0        14.0068 
  20020         1       71.2073         -1.86061   0.000260052       0.581098                 0        14.0068 
  20040         1       71.1329         -5.58224    0.00026022       0.581473                 0        14.0068 
  20060         1        70.984         -9.30387   0.000260388       0.581849                 0        14.0068 
  20080         1       70.7607         -13.0255   0.000260556       0.582224                 0        14.0068 
  20100         1        70.463         -16.7471   0.000260724       0.582599                 0        14.0068 
  20120         1       70.0909         -20.4687   0.000260892       0.582974                 0        14.0068 
  20140         1       69.6443         -24.1904    0.00026106       0.583349                 0        14.0068 
  20160         1       69.1232          -27.912   0.000261228       0.583724                 0        14.0068 
  20180         1       68.5278         -31.6336   0.000261396       0.584099                 0        14.0068 
  20200         1       67.8579         -35.3552   0.000261563       0.584473                 0        14.0068 
  20220         1       67.1136         -39.0769   0.000261731       0.584848                 0        14.0068 
  20240         1       66.2948         -42.7985   0.000261899       0.585223                 0        14.0068 
  20260         1       65.4016         -46.5201   0.000262066       0.585597                 0        14.0068 
  20280         1        64.434         -50.2417   0.000262234       0.585972                 0        14.0068 
  20300         1        63.392         -53.9634   0.000262401       0.586346                 0        14.0068 
  20320         1       62.2755          -57.685   0.000262569        0.58672                 0        14.0068 
  20340         1       61.0846         -61.4066   0.000262736       0.587094                 0        14.0068 
  20360         1       59.8192         -65.1282   0.000262903       0.587468                 0        14.0068 
  20380         1       58.4794         -68.8499   0.000263071       0.587842                 0        14.0068 
  20400         1       57.0652         -72.5715   0.000263238       0.588216                 0        14.0068 
  20420         1       55.5766         -76.2931   0.000263405        0.58859                 0        14.0068 
  20440         1       54.0135         -80.0147   0.000263572       0.588964                 0        14.0068 
  20460         1        52.376         -83.7364   0.000263739       0.589338                 0        14.0068 
  20480         1        50.664          -87.458   0.000263906       0.589711                 0        14.0068 
  20500         1       48.8777         -91.1796   0.000264073       0.590085                 0        14.0068 
  20520         1       47.0169         -94.9012    0.00026424       0.590458                 0        14.0068 
  20540         1       45.0816         -98.6228   0.000264406       0.590832                 0        14.0068 
  20560         1       43.0719         -102.344   0.000264573       0.591205                 0        14.0068 
  20580         1       40.9878         -106.066    0.00026474       0.591578                 0        14.0068 
  20600         1       38.8293         -109.788   0.000264906       0.591951                 0        14.0068 
  20620         1       36.5963         -113.509   0.000265073       0.592324                 0        14.0068 
  20640         1       34.2889         -117.231   0.000265239       0.592697                 0        14.0068 
  20660         1       31.9071         -120.953   0.000265406        0.59307                 0        14.0068 
  20680         1       29.4508         -124.674   0.000265572       0.593443                 0        14.0068 
  20700         1       26.9201         -128.396   0.000265738       0.593816                 0        14.0068 
  20720         1        24.315         -132.117   0.000265905       0.594188                 0        14.0068 
  20740         1       21.6354         -135.839   0.000266071       0.594561                 0        14.0068 
  20760         1       18.8814         -139.561   0.000266237       0.594933                 0        14.0068 
  20780         1        16.053         -143.282   0.000266403       0.595305                 0        14.0068 
  20800         1       13.1501         -147.004   0.000266569       0.595678                 0        14.0068 
  20820         1       10.1729         -150.726   0.000266735        0.59605                 0        14.0068 
  20840         1       7.12113         -154.447   0.000266901       0.596422                 0        14.0068 
  20860         1       3.99497         -158.169   0.000267067       0.596794                 0        14.0068 
  20880         1      0.794376          -161.89   0.000267233       0.597166                 0        14.0068 
  20900         1      -2.48065         -165.612   0.000267399       0.597538                 0        14.0068 
  20920         1       -5.8301         -169.334   0.000267564        0.59791                 0        14.0068 
  20940         1      -9.25399         -173.055    0.00026773       0.598281                 0        14.0068 
  20960         1      -12.7523         -176.777   0.000267895       0.598653                 0        14.0068 
  20980         1      -16.3251         -180.498   0.000268061       0.599025                 0        14.0068 
  21000         1      -19.9723          -184.22   0.000268227       0.599396                 0        14.0068 
  21020         1      -23.6939         -187.942   0.000268392       0.599767                 0        14.0068 
  21040         1      -27.4899         -191.663   0.000268557       0.600139                 0        14.0068 
  21060         1      -31.3604         -195.385   0.000268723        0.60051                 0        14.0068 
  21080         1      -35.3053         -199.107   0.000268888       0.600881                 0        14.0068 
  21100         1      -39.3247         -202.828   0.000269053       0.601252                 0        14.0068 
  21120         1      -43.4184          -206.55   0.000269218       0.601623                 0        14.0068 
  21140         1      -47.5867         -210.271   0.000269383       0.601994                 0        14.0068 
  21160         1      -51.8293         -213.993   0.000269548       0.602364                 0        14.0068 
  21180         1      -56.1464         -217.715   0.000269713       0.602735                 0        14.0068 
  21200         1      -60.5379         -221.436   0.000269878       0.603106                 0        14.0068 
  21220         1      -65.0038         -225.158   0.000270043       0.603476                 0        14.0068 
  21240         1      -69.5442         -228.879   0.000270208       0.603847                 0        14.0068 
  21260         1       -74.159         -232.601   0.000270373       0.604217                 0        14.0068 
  21280         1      -78.8482         -236.323   0.000270537       0.604587                 0        14.0068 
  21300         1      -83.6119         -240.044   0.000270702       0.604957                 0        14.0068 
  21320         1        -88.45         -243.766   0.000270867       0.605327                 0        14.0068 
  21340         1      -93.3625         -247.488   0.000271031       0.605697                 0        14.0068 
  21360         1      -98.3495         -251.209   0.000271196       0.606067                 0        14.0068 
  21380         1      -103.411         -254.931    0.00027136       0.606437                 0        14.0068 
  21400         1      -108.547         -258.652   0.000271524       0.606807                 0        14.0068 
  21420         1      -113.757         -262.374   0.000271689       0.607176                 0        14.0068 
  21440         1      -119.042         -266.096   0.000271853       0.607546                 0        14.0068 
  21460         1      -124.401         -269.817   0.000272017       0.607915                 0        14.0068 
  21480         1      -129.834         -273.539   0.000272181       0.608284                 0        14.0068 
  21500         1      -135.342          -277.26   0.000272346       0.608654                 0        14.0068 
  21520         1      -140.925         -280.982    0.00027251       0.609023                 0        14.0068 
  21540         1      -146.582         -284.704   0.000272674       0.609392                 0        14.0068 
  21560         1      -152.313         -288.425   0.000272838       0.609761                 0        14.0068 
  21580         1      -158.119         -292.147   0.000273001       0.610129                 0        14.0068 
  21600         1      -163.999         -295.868   0.000273165       0.610498                 0        14.0068 
  21620         1      -169.953          -299.59   0.000273329       0.610867                 0        14.0068 
  21640         1      -175.982         -303.312   0.000273493       0.611235                 0        14.0068 
  21660         1      -182.086         -307.033   0.000273656       0.611603                 0        14.0068 
  21680         1      -188.264         -310.755    0.00027382       0.611972                 0        14.0068 
  21700         1      -194.516         -314.477   0.000273984        0.61234                 0        14.0068 
  21720         1      -200.843         -318.198   0.000274147       0.612708                 0        14.0068 
  21740         1      -207.244          -321.92   0.000274311       0.613076                 0        14.0068 
  21760         1       -213.72         -325.641   0.000274474       0.613444                 0        14.0068 
  21780         1       -220.27         -329.363   0.000274637       0.613811                 0        14.0068 
  21800         1      -226.894         -333.085   0.000274801       0.614179                 0        14.0068 
  21820         1      -233.593         -336.806   0.000274964       0.614546                 0        14.0068 
  21840         1      -240.366         -340.528   0.000275127       0.614914                 0        14.0068 
  21860         1      -247.214         -344.249    0.00027529       0.615281                 0        14.0068 
  21880         1      -254.136         -347.971   0.000275453       0.615648                 0        14.0068 
  21900         1      -261.133         -351.693   0.000275616       0.616015                 0        14.0068 
  21920         1      -268.204         -355.414   0.000275779       0.616382                 0        14.0068 
  21940         1       -275.35         -359.136   0.000275942       0.616748                 0        14.0068 
  21960         1      -282.569         -362.857   0.000276105       0.617115                 0        14.0068 
  21980         1      -289.864         -366.579   0.000276268       0.617481                 0        14.0068 
  22000         1      -297.233         -370.301   0.000276431       0.617848                 0        14.0068 
  22020         1      -304.676         -374.022   0.000276594       0.618214                 0        14.0068 
  22040         1      -312.194         -377.744   0.000276756        0.61858                 0        14.0068 
  22060         1      -319.786         -381.465   0.000276919       0.618946                 0        14.0068 
  22080         1      -327.452         -385.187   0.000277082       0.619311                 0        14.0068 
  22100         1      -335.193         -388.909   0.000277244       0.619677                 0        14.0068 
  22120         1      -343.009          -392.63   0.000277407       0.620043                 0        14.0068 
  22140         1      -350.898         -396.352   0.000277569       0.620408                 0        14.0068 
  22160         1      -358.863         -400.074   0.000277731       0.620773                 0        14.0067 
  22180         1      -366.901         -403.795   0.000277894       0.621138                 0        14.0067 
  22200         1      -375.014         -407.517   0.000278056       0.621503                 0        14.0067 
  22220         1      -383.202         -411.238   0.000278218       0.621868                 0        14.0067 
  22240         1      -391.464          -414.96    0.00027838       0.622232                 0        14.0067 
  22260         1        -399.8         -418.682   0.000278542       0.622597                 0        14.0067 
  22280         1      -408.211         -422.403   0.000278704       0.622961                 0        14.0067 
  22300         1      -416.696         -426.125   0.000278866       0.623325                 0        14.0067 
  22320         1      -425.256         -429.846   0.000279028       0.623689                 0        14.0067 
  22340         1       -433.89         -433.568    0.00027919       0.624053                 0        14.0067 
  22360         1      -442.599          -437.29   0.000279352       0.624416                 0        14.0067 
  22380         1      -451.382         -441.011   0.000279514        0.62478                 0        14.0067 
  22400         1      -460.239         -444.733   0.000279676       0.625143                 0        14.0067 
  22420         1      -469.171         -448.454   0.000279837       0.625506                 0        14.0067 
  22440         1      -478.178         -452.176   0.000279999       0.625869                 0        14.0067 
  22460         1      -487.258         -455.898   0.000280161       0.626232                 0        14.0067 
  22480         1      -496.413         -459.619   0.000280322       0.626594                 0        14.0067 
  22500         1      -505.643         -463.341   0.000280484       0.626957                 0        14.0067 
  22520         1      -514.947         -467.062   0.000280645       0.627319                 0        14.0067 
  22540         1      -524.326         -470.784   0.000280807       0.627681                 0        14.0067 
  22560         1      -533.778         -474.506   0.000280968       0.628043                 0        14.0067 
  22580         1      -543.306         -478.227   0.000281129       0.628405                 0        14.0067 
  22600         1      -552.908         -481.949   0.000281291       0.628766                 0        14.0067 
  22620         1      -562.584         -485.671   0.000281452       0.629128                 0        14.0067 
  22640         1      -572.334         -489.392   0.000281613       0.629489                 0        14.0067 
  22660         1      -582.159         -493.114   0.000281774        0.62985                 0        14.0067 
  22680         1      -592.059         -496.835   0.000281935       0.630211                 0        14.0067 
  22700         1      -602.033         -500.557   0.000282096       0.630571                 0        14.0067 
  22720         1      -612.081         -504.279   0.000282257       0.630932                 0        14.0067 
  22740         1      -622.204             -508   0.000282418       0.631292                 0        14.0067 
  22760         1      -632.401         -511.722   0.000282579       0.631652                 0        14.0067 
  22780         1      -642.673         -515.443    0.00028274       0.632012                 0        14.0067 
  22800         1      -653.019         -519.165     0.0002829       0.632371                 0        14.0067 
  22820         1      -663.439         -522.887   0.000283061       0.632731                 0        14.0067 
  22840         1      -673.934         -526.608   0.000283222        0.63309                 0        14.0067 
  22860         1      -684.504          -530.33   0.000283382       0.633449                 0        14.0067 
  22880         1      -695.148         -534.051   0.000283543       0.633808                 0        14.0067 
  22900         1      -705.866         -537.773   0.000283703       0.634167                 0        14.0067 
  22920         1      -716.659         -541.495   0.000283864       0.634526                 0        14.0067 
  22940         1      -727.526         -545.216   0.000284024       0.634884                 0        14.0067 
  22960         1      -738.467         -548.938   0.000284185       0.635242                 0        14.0067 
  22980         1      -749.483          -552.66   0.000284345         0.6356                 0        14.0067 
  23000         1      -760.574         -556.381   0.000284505       0.635958                 0        14.0067 
  23020         1      -771.738         -560.103   0.000284665       0.636315                 0        14.0067 
  23040         1      -782.978         -563.824   0.000284826       0.636673                 0        14.0067 
  23060         1      -794.291         -567.546   0.000284986        0.63703                 0        14.0067 
  23080         1       -805.68         -571.268   0.000285146       0.637387                 0        14.0067 
  23100         1      -817.142         -574.989   0.000285306       0.637744                 0        14.0067 
  23120         1      -828.679         -578.711   0.000285466       0.638101                 0        14.0067 
  23140         1      -840.291         -582.432   0.000285626       0.638457                 0        14.0067 
  23160         1      -851.976         -586.154   0.000285785       0.638813                 0        14.0067 
  23180         1      -863.737         -589.876   0.000285945       0.639169                 0        14.0067 
  23200         1      -875.571         -593.597   0.000286105       0.639525                 0        14.0067 
  23220         1      -887.481         -597.319   0.000286265       0.639881                 0        14.0067 
  23240         1      -899.464         -601.041   0.000286424       0.640237                 0        14.0067 
  23260         1      -911.522         -604.762   0.000286584       0.640592                 0        14.0067 
  23280         1      -923.655         -608.484   0.000286744       0.640947                 0        14.0067 
  23300         1      -935.862         -612.205   0.000286903       0.641302                 0        14.0067 
  23320         1      -948.143         -615.927   0.000287063       0.641657                 0        14.0067 
  23340         1      -960.499         -619.649   0.000287222       0.642012                 0        14.0067 
  23360         1      -972.929          -623.37   0.000287382       0.642366                 0        14.0067 
  23380         1      -985.433         -627.092   0.000287541        0.64272                 0        14.0067 
  23400         1      -998.012         -630.813     0.0002877       0.643075                 0        14.0067 
  23420         1      -1010.67         -634.535   0.000287859       0.643429                 0        14.0067 
  23440         1      -1023.39         -638.257   0.000288019       0.643782                 0        14.0067 
  23460         1       -1036.2         -641.978   0.000288178       0.644136                 0        14.0067 
  23480         1      -1049.07           -645.7   0.000288337       0.644489                 0        14.0067 
  23500         1      -1062.02         -649.421   0.000288496       0.644843                 0        14.0067 
  23520         1      -1075.05         -653.143   0.000288655       0.645196                 0        14.0067 
  23540         1      -1088.15         -656.865   0.000288814       0.645549                 0        14.0067 
  23560         1      -1101.32         -660.586   0.000288973       0.645902                 0        14.0067 
  23580         1      -1114.57         -664.308   0.000289132       0.646254                 0        14.0067 
  23600         1       -1127.9          -668.03    0.00028929       0.646607                 0        14.0067 
  23620         1      -1141.29         -671.751   0.000289449       0.646959                 0        14.0067 
  23640         1      -1154.77         -675.473   0.000289608       0.647311                 0        14.0067 
  23660         1      -1168.31         -679.194   0.000289767       0.647663                 0        14.0067 
  23680         1      -1181.93         -682.916   0.000289925       0.648015                 0        14.0067 
  23700         1      -1195.63         -686.638   0.000290084       0.648367                 0        14.0067 
  23720         1       -1209.4         -690.359   0.000290242       0.648719                 0        14.0067 
  23740         1      -1223.24         -694.081   0.000290401        0.64907                 0        14.0067 
  23760         1      -1237.16         -697.803   0.000290559       0.649421                 0        14.0067 
  23780         1      -1251.16         -701.524   0.000290718       0.649772                 0        14.0067 
  23800         1      -1265.22         -705.246   0.000290876       0.650123                 0        14.0067 
  23820         1      -1279.37         -708.967   0.000291034       0.650474                 0        14.0067 
  23840         1      -1293.58         -712.689   0.000291193       0.650825                 0        14.0067 
  23860         1      -1307.87         -716.411   0.000291351       0.651176                 0        14.0067 
  23880         1      -1322.24         -720.132   0.000291509       0.651526                 0        14.0067 
  23900         1      -1336.68         -723.854   0.000291667       0.651877                 0        14.0067 
  23920         1      -1351.19         -727.575   0.000291825       0.652227                 0        14.0067 
  23940         1      -1365.78         -731.297   0.000291983       0.652577                 0        14.0067 
  23960         1      -1380.45         -735.019   0.000292141       0.652927                 0        14.0067 
  23980         1      -1395.18          -738.74   0.000292299       0.653277                 0        14.0067 
  24000         1         -1410         -742.462   0.000292457       0.653627                 0        14.0067 
  24020         1      -1424.88         -746.184   0.000292615       0.653976                 0        14.0067 
  24040         1      -1439.84         -749.905   0.000292773       0.654326                 0        14.0067 
  24060         1      -1454.88         -753.627    0.00029293       0.654675                 0        14.0067 
  24080         1      -1469.99         -757.348   0.000293088       0.655025                 0        14.0067 
  24100         1      -1485.17          -761.07   0.000293246       0.655374                 0        14.0067 
  24120         1      -1500.43         -764.792   0.000293403       0.655723                 0        14.0067 
  24140         1      -1515.76         -768.513   0.000293561       0.656072                 0        14.0067 
  24160         1      -1531.17         -772.235   0.000293718       0.656421                 0        14.0067 
  24180         1      -1546.65         -775.956   0.000293876        0.65677                 0        14.0067 
  24200         1      -1562.21         -779.678   0.000294033       0.657118                 0        14.0067 
  24220         1      -1577.84           -783.4   0.000294191       0.657467                 0        14.0067 
  24240         1      -1593.55         -787.121   0.000294348       0.657815                 0        14.0067 
  24260         1      -1609.32         -790.843   0.000294505       0.658164                 0        14.0067 
  24280         1      -1625.18         -794.565   0.000294662       0.658512                 0        14.0067 
  24300         1      -1641.11         -798.286    0.00029482        0.65886                 0        14.0067 
  24320         1      -1657.11         -802.008   0.000294977       0.659209                 0        14.0067 
  24340         1      -1673.19         -805.729   0.000295134       0.659557                 0        14.0067 
  24360         1      -1689.34         -809.451   0.000295291       0.659905                 0        14.0067 
  24380         1      -1705.57         -813.173   0.000295448       0.660253                 0        14.0067 
  24400         1      -1721.87         -816.894   0.000295605         0.6606                 0        14.0067 
  24420         1      -1738.24         -820.616   0.000295762       0.660948                 0        14.0067 
  24440         1      -1754.69         -824.338   0.000295919       0.661296                 0        14.0067 
  24460         1      -1771.21         -828.059   0.000296076       0.661643                 0        14.0067 
  24480         1      -1787.81         -831.781   0.000296232       0.661991                 0        14.0067 
  24500         1      -1804.49         -835.502   0.000296389       0.662338                 0        14.0067 
  24520         1      -1821.23         -839.224   0.000296546       0.662686                 0        14.0067 
  24540         1      -1838.06         -842.946   0.000296702       0.663033                 0        14.0067 
  24560         1      -1854.95         -846.667   0.000296859        0.66338                 0        14.0067 
  24580         1      -1871.92         -850.389   0.000297016       0.663727                 0        14.0067 
  24600         1      -1888.97          -854.11   0.000297172       0.664074                 0        14.0067 
  24620         1      -1906.09         -857.832   0.000297329       0.664421                 0        14.0067 
  24640         1      -1923.28         -861.554   0.000297485       0.664768                 0        14.0067 
  24660         1      -1940.55         -865.275   0.000297641       0.665115                 0        14.0067 
  24680         1      -1957.89         -868.997   0.000297798       0.665462                 0        14.0067 
  24700         1      -1975.31         -872.719   0.000297954       0.665808                 0        14.0067 
  24720         1       -1992.8          -876.44    0.00029811       0.666155                 0        14.0067 
  24740         1      -2010.37         -880.162   0.000298267       0.666502                 0        14.0067 
  24760         1      -2028.01         -883.883   0.000298423       0.666848                 0        14.0067 
  24780         1      -2045.72         -887.605   0.000298579       0.667195                 0        14.0067 
  24800         1      -2063.51         -891.327   0.000298735       0.667541                 0        14.0067 
  24820         1      -2081.37         -895.048   0.000298891       0.667887                 0        14.0067 
  24840         1      -2099.31          -898.77   0.000299047       0.668234                 0        14.0067 
  24860         1      -2117.33         -902.492   0.000299203        0.66858                 0        14.0067 
  24880         1      -2135.41         -906.213   0.000299359       0.668926                 0        14.0067 
  24900         1      -2153.57         -909.935   0.000299515       0.669272                 0        14.0067 
  24920         1      -2171.81         -913.656    0.00029967       0.669618                 0        14.0067 
  24940         1      -2190.12         -917.378   0.000299826       0.669964                 0        14.0067 
  24960         1       -2208.5           -921.1   0.000299982        0.67031                 0        14.0067 
  24980         1      -2226.96         -924.821   0.000300138       0.670656                 0        14.0067 
  25000         1       -2245.5         -928.543   0.000300293       0.671002                 0        14.0067 
  25020         1      -2264.11         -932.264   0.000300449       0.671347                 0        14.0067 
  25040         1      -2282.79         -935.986   0.000300604       0.671693                 0        14.0067 
  25060         1      -2301.54         -939.708    0.00030076       0.672039                 0        14.0067 
  25080         1      -2320.38         -943.429   0.000300915       0.672384                 0        14.0067 
  25100         1      -2339.28         -947.151   0.000301071        0.67273                 0        14.0067 
  25120         1      -2358.26         -950.873   0.000301226       0.673075                 0        14.0067 
  25140         1      -2377.32         -954.594   0.000301381       0.673421                 0        14.0067 
  25160         1      -2396.45         -958.316   0.000301537       0.673766                 0        14.0067 
  25180         1      -2415.65         -962.037   0.000301692       0.674111                 0        14.0067 
  25200         1      -2434.93         -965.759   0.000301847       0.674456                 0        14.0067 
  25220         1      -2454.28         -969.481   0.000302002       0.674801                 0        14.0067 
  25240         1      -2473.71         -973.202   0.000302157       0.675146                 0        14.0067 
  25260         1      -2493.21         -976.924   0.000302312       0.675491                 0        14.0067 
  25280         1      -2512.78         -980.646   0.000302467       0.675836                 0        14.0067 
  25300         1      -2532.43         -984.367   0.000302622       0.676181                 0        14.0067 
  25320         1      -2552.16         -988.089   0.000302777       0.676526                 0        14.0067 
  25340         1      -2571.96          -991.81   0.000302932       0.676871                 0        14.0067 
  25360         1      -2591.83         -995.532   0.000303087       0.677216                 0        14.0067 
  25380         1      -2611.78         -999.254   0.000303242        0.67756                 0        14.0067 
  25400         1       -2631.8         -1002.98   0.000303397       0.677905                 0        14.0067 
  25420         1       -2651.9          -1006.7   0.000303551       0.678249                 0        14.0067 
  25440         1      -2672.07         -1010.42   0.000303706       0.678594                 0        14.0067 
  25460         1      -2692.31         -1014.14   0.000303861       0.678938                 0        14.0067 
  25480         1      -2712.63         -1017.86   0.000304015       0.679283                 0        14.0067 
  25500         1      -2733.03         -1021.58    0.00030417       0.679627                 0        14.0067 
  25520         1       -2753.5          -1025.3   0.000304324       0.679971                 0        14.0067 
  25540         1      -2774.04         -1029.03   0.000304479       0.680315                 0        14.0067 
  25560         1      -2794.66         -1032.75   0.000304633       0.680659                 0        14.0067 
  25580         1      -2815.35         -1036.47   0.000304788       0.681003                 0        14.0067 
  25600         1      -2836.12         -1040.19   0.000304942       0.681347                 0        14.0067 
  25620         1      -2856.96         -1043.91   0.000305096       0.681691                 0        14.0067 
  25640         1      -2877.87         -1047.63    0.00030525       0.682035                 0        14.0067 
  25660         1      -2898.86         -1051.36   0.000305405       0.682378                 0        14.0067 
  25680         1      -2919.93         -1055.08   0.000305559       0.682722                 0        14.0067 
  25700         1      -2941.07          -1058.8   0.000305713       0.683066                 0        14.0067 
  25720         1      -2962.28         -1062.52   0.000305867       0.683409                 0        14.0067 
  25740         1      -2983.57         -1066.24   0.000306021       0.683753                 0        14.0067 
  25760         1      -3004.93         -1069.96   0.000306175       0.684096                 0        14.0067 
  25780         1      -3026.37         -1073.69   0.000306329       0.684439                 0        14.0067 
  25800         1      -3047.88         -1077.41   0.000306483       0.684783                 0        14.0067 
  25820         1      -3069.46         -1081.13   0.000306637       0.685126                 0        14.0067 
  25840         1      -3091.12         -1084.85   0.000306791       0.685469                 0        14.0067 
  25860         1      -3112.86         -1088.57   0.000306944       0.685812                 0        14.0067 
  25880         1      -3134.67         -1092.29   0.000307098       0.686155                 0        14.0067 
  25900         1      -3156.55         -1096.02   0.000307252       0.686498                 0        14.0067 
  25920         1      -3178.51         -1099.74   0.000307406       0.686841                 0        14.0067 
  25940         1      -3200.54         -1103.46   0.000307559       0.687183                 0        14.0067 
  25960         1      -3222.64         -1107.18   0.000307713       0.687526                 0        14.0067 
  25980         1      -3244.83          -1110.9   0.000307866       0.687869                 0        14.0067 
  26000         1      -3267.08         -1114.62    0.00030802       0.688211                 0        14.0067 
  26020         1      -3289.41         -1118.35   0.000308173       0.688554                 0        14.0067 
  26040         1      -3311.81         -1122.07   0.000308327       0.688896                 0        14.0067 
  26060         1      -3334.29         -1125.79    0.00030848       0.689238                 0        14.0067 
  26080         1      -3356.85         -1129.51   0.000308633        0.68958                 0        14.0067 
  26100         1      -3379.47         -1133.23   0.000308787       0.689923                 0        14.0067 
  26120         1      -3402.18         -1136.95    0.00030894       0.690265                 0        14.0067 
  26140         1      -3424.95         -1140.68   0.000309093       0.690607                 0        14.0067 
  26160         1       -3447.8          -1144.4   0.000309246       0.690948                 0        14.0067 
  26180         1      -3470.73         -1148.12   0.000309399        0.69129                 0        14.0067 
  26200         1      -3493.73         -1151.84   0.000309552       0.691632                 0        14.0067 
  26220         1       -3516.8         -1155.56   0.000309705       0.691974                 0        14.0067 
  26240         1      -3539.95         -1159.28   0.000309858       0.692315                 0        14.0067 
  26260         1      -3563.17            -1163   0.000310011       0.692657                 0        14.0067 
  26280         1      -3586.47         -1166.73   0.000310164       0.692998                 0        14.0067 
  26300         1      -3609.84         -1170.45   0.000310317        0.69334                 0        14.0067 
  26320         1      -3633.29         -1174.17    0.00031047       0.693681                 0        14.0067 
  26340         1      -3656.81         -1177.89   0.000310623       0.694022                 0        14.0067 
  26360         1       -3680.4         -1181.61   0.000310776       0.694363                 0        14.0067 
  26380         1      -3704.07         -1185.33   0.000310928       0.694704                 0        14.0067 
  26400         1      -3727.82         -1189.06   0.000311081       0.695045                 0        14.0067 
  26420         1      -3751.64         -1192.78   0.000311234       0.695386                 0        14.0067 
  26440         1      -3775.53          -1196.5   0.000311386       0.695727                 0        14.0067 
  26460         1      -3799.49         -1200.22   0.000311539       0.696067                 0        14.0067 
  26480         1      -3823.54         -1203.94   0.000311691       0.696408                 0        14.0067 
  26500         1      -3847.65         -1207.66   0.000311844       0.696748                 0        14.0067 
  26520         1      -3871.84         -1211.39   0.000311996       0.697089                 0        14.0067 
  26540         1      -3896.11         -1215.11   0.000312148       0.697429                 0        14.0067 
  26560         1      -3920.45         -1218.83   0.000312301        0.69777                 0        14.0067 
  26580         1      -3944.86         -1222.55   0.000312453        0.69811                 0        14.0067 
  26600         1      -3969.35         -1226.27   0.000312605        0.69845                 0        14.0067 
  26620         1      -3993.91         -1229.99   0.000312758        0.69879                 0        14.0067 
  26640         1      -4018.55         -1233.72    0.00031291        0.69913                 0        14.0067 
  26660         1      -4043.26         -1237.44   0.000313062        0.69947                 0        14.0067 
  26680         1      -4068.05         -1241.16   0.000313214       0.699809                 0        14.0067 
  26700         1      -4092.91         -1244.88   0.000313366       0.700149                 0        14.0067 
  26720         1      -4117.84          -1248.6   0.000313518       0.700489                 0        14.0067 
  26740         1      -4142.85         -1252.32    0.00031367       0.700828                 0        14.0067 
  26760         1      -4167.93         -1256.05   0.000313822       0.701168                 0        14.0067 
  26780         1      -4193.09         -1259.77   0.000313974       0.701507                 0        14.0067 
  26800         1      -4218.33         -1263.49   0.000314126       0.701846                 0        14.0067 
  26820         1      -4243.63         -1267.21   0.000314278       0.702185                 0        14.0067 
  26840         1      -4269.01         -1270.93   0.000314429       0.702524                 0        14.0067 
  26860         1      -4294.47         -1274.65   0.000314581       0.702863                 0        14.0067 
  26880         1         -4320         -1278.37   0.000314733       0.703202                 0        14.0067 
  26900         1       -4345.6          -1282.1   0.000314885       0.703541                 0        14.0067 
  26920         1      -4371.28         -1285.82   0.000315036        0.70388                 0        14.0067 
  26940         1      -4397.04         -1289.54   0.000315188       0.704219                 0        14.0067 
  26960         1      -4422.87         -1293.26   0.000315339       0.704557                 0        14.0067 
  26980         1      -4448.77         -1296.98   0.000315491       0.704896                 0        14.0067 
  27000         1      -4474.74          -1300.7   0.000315642       0.705234                 0        14.0067 
  27020         1       -4500.8         -1304.43   0.000315794       0.705572                 0        14.0067 
  27040         1      -4526.92         -1308.15   0.000315945       0.705911                 0        14.0067 
  27060         1      -4553.12         -1311.87   0.000316096       0.706249                 0        14.0067 
  27080         1       -4579.4         -1315.59   0.000316248       0.706587                 0        14.0067 
  27100         1      -4605.75         -1319.31   0.000316399       0.706925                 0        14.0067 
  27120         1      -4632.17         -1323.03    0.00031655       0.707263                 0        14.0067 
  27140         1      -4658.67         -1326.76   0.000316701         0.7076                 0        14.0067 
  27160         1      -4685.24         -1330.48   0.000316853       0.707938                 0        14.0067 
  27180         1      -4711.89          -1334.2   0.000317004       0.708276                 0        14.0067 
  27200         1      -4738.61         -1337.92   0.000317155       0.708613                 0        14.0067 
  27220         1       -4765.4         -1341.64   0.000317306       0.708951                 0        14.0067 
  27240         1      -4792.27         -1345.36   0.000317457       0.709288                 0        14.0067 
  27260         1      -4819.22         -1349.09   0.000317608       0.709625                 0        14.0067 
  27280         1      -4846.24         -1352.81   0.000317759       0.709963                 0        14.0067 
  27300         1      -4873.33         -1356.53   0.000317909         0.7103                 0        14.0067 
  27320         1       -4900.5         -1360.25    0.00031806       0.710637                 0        14.0067 
  27340         1      -4927.74         -1363.97   0.000318211       0.710974                 0        14.0067 
  27360         1      -4955.06         -1367.69   0.000318362       0.711311                 0        14.0067 
  27380         1      -4982.45         -1371.42   0.000318513       0.711647                 0        14.0067 
  27400         1      -5009.91         -1375.14   0.000318663       0.711984                 0        14.0067 
  27420         1      -5037.45         -1378.86   0.000318814       0.712321                 0        14.0067 
  27440         1      -5065.07         -1382.58   0.000318964       0.712657                 0        14.0067 
  27460         1      -5092.76          -1386.3   0.000319115       0.712994                 0        14.0067 
  27480         1      -5120.52         -1390.02   0.000319266        0.71333                 0        14.0067 
  27500         1      -5148.36         -1393.74   0.000319416       0.713666                 0        14.0067 
  27520         1      -5176.27         -1397.47   0.000319567       0.714002                 0        14.0067 
  27540         1      -5204.26         -1401.19   0.000319717       0.714338                 0        14.0067 
  27560         1      -5232.32         -1404.91   0.000319867       0.714674                 0        14.0067 
  27580         1      -5260.45         -1408.63   0.000320018        0.71501                 0        14.0067 
  27600         1      -5288.66         -1412.35   0.000320168       0.715346                 0        14.0067 
  27620         1      -5316.95         -1416.07   0.000320318       0.715682                 0        14.0067 
  27640         1      -5345.31          -1419.8   0.000320468       0.716017                 0        14.0067 
  27660         1      -5373.74         -1423.52   0.000320619       0.716353                 0        14.0067 
  27680         1      -5402.25         -1427.24   0.000320769       0.716688                 0        14.0067 
  27700         1      -5430.83         -1430.96   0.000320919       0.717024                 0        14.0067 
  27720         1      -5459.48         -1434.68   0.000321069       0.717359                 0        14.0067 
  27740         1      -5488.22          -1438.4   0.000321219       0.717694                 0        14.0067 
  27760         1      -5517.02         -1442.13   0.000321369        0.71803                 0        14.0067 
  27780         1       -5545.9         -1445.85   0.000321519       0.718365                 0        14.0067 
  27800         1      -5574.85         -1449.57   0.000321669         0.7187                 0        14.0067 
  27820         1      -5603.88         -1453.29   0.000321819       0.719034                 0        14.0067 
  27840         1      -5632.99         -1457.01   0.000321968       0.719369                 0        14.0067 
  27860         1      -5662.16         -1460.73   0.000322118       0.719704                 0        14.0067 
  27880         1      -5691.42         -1464.46   0.000322268       0.720039                 0        14.0067 
  27900         1      -5720.74         -1468.18   0.000322418       0.720373                 0        14.0067 
  27920         1      -5750.14          -1471.9   0.000322567       0.720708                 0        14.0067 
  27940         1      -5779.62         -1475.62   0.000322717       0.721042                 0        14.0067 
  27960         1      -5809.17         -1479.34   0.000322867       0.721376                 0        14.0067 
  27980         1      -5838.79         -1483.06   0.000323016        0.72171                 0        14.0067 
  28000         1      -5868.49         -1486.79   0.000323166       0.722045                 0        14.0067 
  28020         1      -5898.26         -1490.51   0.000323315       0.722379                 0        14.0067 
  28040         1      -5928.11         -1494.23   0.000323465       0.722713                 0        14.0067 
  28060         1      -5958.03         -1497.95   0.000323614       0.723046                 0        14.0067 
  28080         1      -5988.03         -1501.67   0.000323764        0.72338                 0        14.0067 
  28100         1       -6018.1         -1505.39   0.000323913       0.723714                 0        14.0067 
  28120         1      -6048.24         -1509.11   0.000324062       0.724048                 0        14.0067 
  28140         1      -6078.46         -1512.84   0.000324211       0.724381                 0        14.0067 
  28160         1      -6108.76         -1516.56   0.000324361       0.724715                 0        14.0067 
  28180         1      -6139.13         -1520.28    0.00032451       0.725048                 0        14.0067 
  28200         1      -6169.57            -1524   0.000324659       0.725381                 0        14.0067 
  28220         1      -6200.09         -1527.72   0.000324808       0.725714                 0        14.0067 
  28240         1      -6230.68         -1531.44   0.000324957       0.726048                 0        14.0067 
  28260         1      -6261.34         -1535.17   0.000325106       0.726381                 0        14.0067 
  28280         1      -6292.08         -1538.89   0.000325255       0.726713                 0        14.0067 
  28300         1       -6322.9         -1542.61   0.000325404       0.727046                 0        14.0067 
  28320         1      -6353.79         -1546.33   0.000325553       0.727379                 0        14.0067 
  28340         1      -6384.75         -1550.05   0.000325702       0.727712                 0        14.0067 
  28360         1      -6415.79         -1553.77   0.000325851       0.728044                 0        14.0067 
  28380         1       -6446.9          -1557.5      0.000326       0.728377                 0        14.0067 
  28400         1      -6478.09         -1561.22   0.000326149       0.728709                 0        14.0067 
  28420         1      -6509.35         -1564.94   0.000326297       0.729042                 0        14.0067 
  28440         1      -6540.69         -1568.66   0.000326446       0.729374                 0        14.0067 
  28460         1       -6572.1         -1572.38   0.000326595       0.729706                 0        14.0067 
  28480         1      -6603.58          -1576.1   0.000326743       0.730038                 0        14.0067 
  28500         1      -6635.14         -1579.83   0.000326892        0.73037                 0        14.0067 
  28520         1      -6666.78         -1583.55    0.00032704       0.730702                 0        14.0067 
  28540         1      -6698.48         -1587.27   0.000327189       0.731034                 0        14.0067 
  28560         1      -6730.27         -1590.99   0.000327337       0.731366                 0        14.0067 
  28580         1      -6762.12         -1594.71   0.000327486       0.731698                 0        14.0067 
  28600         1      -6794.06         -1598.43   0.000327634       0.732029                 0        14.0067 
  28620         1      -6826.06         -1602.16   0.000327783       0.732361                 0        14.0067 
  28640         1      -6858.14         -1605.88   0.000327931       0.732692                 0        14.0067 
  28660         1       -6890.3          -1609.6   0.000328079       0.733024                 0        14.0067 
  28680         1      -6922.53         -1613.32   0.000328228       0.733355                 0        14.0067 
  28700         1      -6954.83         -1617.04   0.000328376       0.733686                 0        14.0067 
  28720         1      -6987.21         -1620.76   0.000328524       0.734017                 0        14.0067 
  28740         1      -7019.66         -1624.48   0.000328672       0.734349                 0        14.0067 
  28760         1      -7052.19         -1628.21    0.00032882       0.734679                 0        14.0067 
  28780         1      -7084.79         -1631.93   0.000328968        0.73501                 0        14.0067 
  28800         1      -7117.46         -1635.65   0.000329116       0.735341                 0        14.0067 
  28820         1      -7150.21         -1639.37   0.000329265       0.735672                 0        14.0067 
  28840         1      -7183.04         -1643.09   0.000329412       0.736003                 0        14.0067 
  28860         1      -7215.94         -1646.81    0.00032956       0.736333                 0        14.0067 
  28880         1      -7248.91         -1650.54   0.000329708       0.736664                 0        14.0067 
  28900         1      -7281.96         -1654.26   0.000329856       0.736994                 0        14.0067 
  28920         1      -7315.08         -1657.98   0.000330004       0.737324                 0        14.0067 
  28940         1      -7348.28          -1661.7   0.000330152       0.737655                 0        14.0067 
  28960         1      -7381.55         -1665.42     0.0003303       0.737985                 0        14.0067 
  28980         1       -7414.9         -1669.14   0.000330447       0.738315                 0        14.0067 
  29000         1      -7448.32         -1672.87   0.000330595       0.738645                 0        14.0067 
  29020         1      -7481.81         -1676.59   0.000330743       0.738975                 0        14.0067 
  29040         1      -7515.38         -1680.31    0.00033089       0.739305                 0        14.0067 
  29060         1      -7549.02         -1684.03   0.000331038       0.739634                 0        14.0067 
  29080         1      -7582.74         -1687.75   0.000331185       0.739964                 0        14.0067 
  29100         1      -7616.53         -1691.47   0.000331333       0.740294                 0        14.0067 
  29120         1       -7650.4          -1695.2    0.00033148       0.740623                 0        14.0067 
  29140         1      -7684.34         -1698.92   0.000331628       0.740953                 0        14.0067 
  29160         1      -7718.36         -1702.64   0.000331775       0.741282                 0        14.0067 
  29180         1      -7752.45         -1706.36   0.000331923       0.741611                 0        14.0067 
  29200         1      -7786.61         -1710.08    0.00033207        0.74194                 0        14.0067 
  29220         1      -7820.85          -1713.8   0.000332217        0.74227                 0        14.0067 
  29240         1      -7855.16         -1717.53   0.000332364       0.742599                 0        14.0067 
  29260         1      -7889.55         -1721.25   0.000332512       0.742928                 0        14.0067 
  29280         1      -7924.01         -1724.97   0.000332659       0.743256                 0        14.0067 
  29300         1      -7958.55         -1728.69   0.000332806       0.743585                 0        14.0067 
  29320         1      -7993.16         -1732.41   0.000332953       0.743914                 0        14.0067 
  29340         1      -8027.85         -1736.13     0.0003331       0.744243                 0        14.0067 
  29360         1      -8062.61         -1739.86   0.000333247       0.744571                 0        14.0067 
  29380         1      -8097.44         -1743.58   0.000333394         0.7449                 0        14.0067 
  29400         1      -8132.35          -1747.3   0.000333541       0.745228                 0        14.0067 
  29420         1      -8167.33         -1751.02   0.000333688       0.745556                 0        14.0067 
  29440         1      -8202.39         -1754.74   0.000333835       0.745885                 0        14.0067 
  29460         1      -8237.52         -1758.46   0.000333982       0.746213                 0        14.0067 
  29480         1      -8272.73         -1762.18   0.000334129       0.746541                 0        14.0067 
  29500         1      -8308.01         -1765.91   0.000334276       0.746869                 0        14.0067 
  29520         1      -8343.36         -1769.63   0.000334422       0.747197                 0        14.0067 
  29540         1      -8378.79         -1773.35   0.000334569       0.747525                 0        14.0067 
  29560         1       -8414.3         -1777.07   0.000334716       0.747852                 0        14.0067 
  29580         1      -8449.88         -1780.79   0.000334863        0.74818                 0        14.0067 
  29600         1      -8485.53         -1784.51   0.000335009       0.748508                 0        14.0067 
  29620         1      -8521.26         -1788.24   0.000335156       0.748835                 0        14.0067 
  29640         1      -8557.06         -1791.96   0.000335302       0.749163                 0        14.0067 
  29660         1      -8592.94         -1795.68   0.000335449        0.74949                 0        14.0067 
  29680         1      -8628.89          -1799.4   0.000335595       0.749817                 0        14.0067 
  29700         1      -8664.91         -1803.12   0.000335742       0.750145                 0        14.0067 
  29720         1      -8701.01         -1806.84   0.000335888       0.750472                 0        14.0067 
  29740         1      -8737.18         -1810.57   0.000336035       0.750799                 0        14.0067 
  29760         1      -8773.43         -1814.29   0.000336181       0.751126                 0        14.0067 
  29780         1      -8809.76         -1818.01   0.000336327       0.751453                 0        14.0067 
  29800         1      -8846.15         -1821.73   0.000336473        0.75178                 0        14.0067 
  29820         1      -8882.63         -1825.45    0.00033662       0.752106                 0        14.0067 
  29840         1      -8919.17         -1829.17   0.000336766       0.752433                 0        14.0067 
  29860         1      -8955.79          -1832.9   0.000336912        0.75276                 0        14.0067 
  29880         1      -8992.49         -1836.62   0.000337058       0.753086                 0        14.0067 
  29900         1      -9029.26         -1840.34   0.000337204       0.753413                 0        14.0067 
  29920         1       -9066.1         -1844.06    0.00033735       0.753739                 0        14.0067 
  29940         1      -9103.02         -1847.78   0.000337496       0.754065                 0        14.0067 
  29960         1      -9140.01          -1851.5   0.000337642       0.754391                 0        14.0067 
  29980         1      -9177.08         -1855.23   0.000337788       0.754718                 0        14.0067 
  30000         1      -9214.22         -1858.95   0.000337934       0.755044                 0        14.0067 
  30020         1      -9251.44         -1862.67    0.00033808        0.75537                 0        14.0067 
  30040         1      -9288.73         -1866.39   0.000338226       0.755696                 0        14.0067 
  30060         1      -9326.09         -1870.11   0.000338372       0.756021                 0        14.0067 
  30080         1      -9363.53         -1873.83   0.000338518       0.756347                 0        14.0067 
  30100         1      -9401.05         -1877.55   0.000338663       0.756673                 0        14.0067 
  30120         1      -9438.63         -1881.28   0.000338809       0.756998                 0        14.0067 
  30140         1       -9476.3            -1885   0.000338955       0.757324                 0        14.0067 
  30160         1      -9514.03         -1888.72   0.000339101       0.757649                 0        14.0067 
  30180         1      -9551.85         -1892.44   0.000339246       0.757975                 0        14.0067 
  30200         1      -9589.73         -1896.16   0.000339392         0.7583                 0        14.0067 
  30220         1      -9627.69         -1899.88   0.000339537       0.758625                 0        14.0067 
  30240         1      -9665.73         -1903.61   0.000339683        0.75895                 0        14.0067 
  30260         1      -9703.84         -1907.33   0.000339828       0.759275                 0        14.0067 
  30280         1      -9742.02         -1911.05   0.000339974         0.7596                 0        14.0067 
  30300         1      -9780.28         -1914.77   0.000340119       0.759925                 0        14.0067 
  30320         1      -9818.61         -1918.49   0.000340265        0.76025                 0        14.0067 
  30340         1      -9857.02         -1922.21    0.00034041       0.760575                 0        14.0067 
  30360         1       -9895.5         -1925.94   0.000340555         0.7609                 0        14.0067 
  30380         1      -9934.06         -1929.66   0.000340701       0.761224                 0        14.0067 
  30400         1      -9972.69         -1933.38   0.000340846       0.761549                 0        14.0067 
  30420         1      -10011.4          -1937.1   0.000340991       0.761873                 0        14.0067 
  30440         1      -10050.2         -1940.82   0.000341136       0.762198                 0        14.0067 
  30460         1        -10089         -1944.54   0.000341281       0.762522                 0        14.0067 
  30480         1        -10128         -1948.27   0.000341426       0.762846                 0        14.0067 
  30500         1        -10167         -1951.99   0.000341572        0.76317                 0        14.0067 
  30520         1        -10206         -1955.71   0.000341717       0.763494                 0        14.0067 
  30540         1      -10245.2         -1959.43   0.000341862       0.763818                 0        14.0067 
  30560         1      -10284.4         -1963.15   0.000342007       0.764142                 0        14.0067 
  30580         1      -10323.7         -1966.87   0.000342152       0.764466                 0        14.0067 
  30600         1      -10363.1          -1970.6   0.000342296        0.76479                 0        14.0067 
  30620         1      -10402.5         -1974.32   0.000342441       0.765114                 0        14.0067 
  30640         1      -10442.1         -1978.04   0.000342586       0.765437                 0        14.0067 
  30660         1      -10481.7         -1981.76   0.000342731       0.765761                 0        14.0067 
  30680         1      -10521.3         -1985.48   0.000342876       0.766084                 0        14.0067 
  30700         1      -10561.1          -1989.2    0.00034302       0.766408                 0        14.0067 
  30720         1      -10600.9         -1992.92   0.000343165       0.766731                 0        14.0067 
  30740         1      -10640.8         -1996.65    0.00034331       0.767054                 0        14.0067 
  30760         1      -10680.8         -2000.37   0.000343455       0.767378                 0        14.0067 
  30780         1      -10720.8         -2004.09   0.000343599       0.767701                 0        14.0067 
  30800         1      -10760.9         -2007.81   0.000343744       0.768024                 0        14.0067 
  30820         1      -10801.1         -2011.53   0.000343888       0.768347                 0        14.0067 
  30840         1      -10841.4         -2015.25   0.000344033       0.768669                 0        14.0067 
  30860         1      -10881.7         -2018.98   0.000344177       0.768992                 0        14.0067 
  30880         1      -10922.1          -2022.7   0.000344322       0.769315                 0        14.0067 
  30900         1      -10962.6         -2026.42   0.000344466       0.769638                 0        14.0067 
  30920         1      -11003.2         -2030.14   0.000344611        0.76996                 0        14.0067 
  30940         1      -11043.8         -2033.86   0.000344755       0.770283                 0        14.0067 
  30960         1      -11084.6         -2037.58   0.000344899       0.770605                 0        14.0067 
  30980         1      -11125.3         -2041.31   0.000345043       0.770928                 0        14.0067 
  31000         1      -11166.2         -2045.03   0.000345188        0.77125                 0        14.0067 
  31020         1      -11207.1         -2048.75   0.000345332       0.771572                 0        14.0067 
  31040         1      -11248.2         -2052.47   0.000345476       0.771894                 0        14.0067 
  31060         1      -11289.2         -2056.19    0.00034562       0.772216                 0        14.0067 
  31080         1      -11330.4         -2059.91   0.000345764       0.772538                 0        14.0067 
  31100         1      -11371.6         -2063.64   0.000345908        0.77286                 0        14.0067 
  31120         1        -11413         -2067.36   0.000346053       0.773182                 0        14.0067 
  31140         1      -11454.3         -2071.08   0.000346197       0.773504                 0        14.0067 
  31160         1      -11495.8          -2074.8   0.000346341       0.773826                 0        14.0067 
  31180         1      -11537.3         -2078.52   0.000346484       0.774147                 0        14.0067 
  31200         1      -11578.9         -2082.24   0.000346628       0.774469                 0        14.0067 
  31220         1      -11620.6         -2085.97   0.000346772        0.77479                 0        14.0067 
  31240         1      -11662.4         -2089.69   0.000346916       0.775112                 0        14.0067 
  31260         1      -11704.2         -2093.41    0.00034706       0.775433                 0        14.0067 
  31280         1      -11746.1         -2097.13   0.000347204       0.775754                 0        14.0067 
  31300         1      -11788.1         -2100.85   0.000347348       0.776075                 0        14.0067 
  31320         1      -11830.1         -2104.57   0.000347491       0.776397                 0        14.0067 
  31340         1      -11872.3         -2108.29   0.000347635       0.776718                 0        14.0067 
  31360         1      -11914.5         -2112.02   0.000347779       0.777039                 0        14.0067 
  31380         1      -11956.8         -2115.74   0.000347922        0.77736                 0        14.0067 
  31400         1      -11999.1         -2119.46   0.000348066        0.77768                 0        14.0067 
  31420         1      -12041.5         -2123.18   0.000348209       0.778001                 0        14.0067 
  31440         1        -12084          -2126.9   0.000348353       0.778322                 0        14.0067 
  31460         1      -12126.6         -2130.62   0.000348496       0.778642                 0        14.0067 
  31480         1      -12169.3         -2134.35    0.00034864       0.778963                 0        14.0067 
  31500         1        -12212         -2138.07   0.000348783       0.779283                 0        14.0067 
  31520         1      -12254.8         -2141.79   0.000348927       0.779604                 0        14.0067 
  31540         1      -12297.7         -2145.51    0.00034907       0.779924                 0        14.0067 
  31560         1      -12340.6         -2149.23   0.000349213       0.780244                 0        14.0067 
  31580         1      -12383.6         -2152.95   0.000349357       0.780565                 0        14.0067 
  31600         1      -12426.7         -2156.68     0.0003495       0.780885                 0        14.0067 
  31620         1      -12469.9          -2160.4   0.000349643       0.781205                 0        14.0067 
  31640         1      -12513.1         -2164.12   0.000349787       0.781525                 0        14.0067 
  31660         1      -12556.5         -2167.84    0.00034993       0.781845                 0        14.0067 
  31680         1      -12599.8         -2171.56   0.000350073       0.782164                 0        14.0067 
  31700         1      -12643.3         -2175.28   0.000350216       0.782484                 0        14.0067 
  31720         1      -12686.9         -2179.01   0.000350359       0.782804                 0        14.0067 
  31740         1      -12730.5         -2182.73   0.000350502       0.783123                 0        14.0067 
  31760         1      -12774.2         -2186.45   0.000350645       0.783443                 0        14.0067 
  31780         1      -12817.9         -2190.17   0.000350788       0.783762                 0        14.0067 
  31800         1      -12861.8         -2193.89   0.000350931       0.784082                 0        14.0067 
  31820         1      -12905.7         -2197.61   0.000351074       0.784401                 0        14.0067 
  31840         1      -12949.7         -2201.34   0.000351217        0.78472                 0        14.0067 
  31860         1      -12993.7         -2205.06    0.00035136        0.78504                 0        14.0067 
  31880         1      -13037.9         -2208.78   0.000351503       0.785359                 0        14.0067 
  31900         1      -13082.1          -2212.5   0.000351645       0.785678                 0        14.0067 
  31920         1      -13126.4         -2216.22   0.000351788       0.785997                 0        14.0067 
  31940         1      -13170.7         -2219.94   0.000351931       0.786316                 0        14.0067 
  31960         1      -13215.2         -2223.67   0.000352074       0.786634                 0        14.0067 
  31980         1      -13259.7         -2227.39   0.000352216       0.786953                 0        14.0067 
  32000         1      -13304.3         -2231.11   0.000352359       0.787272                 0        14.0067 
  32020         1      -13348.9         -2234.83   0.000352501        0.78759                 0        14.0067 
  32040         1      -13393.7         -2238.55   0.000352644       0.787909                 0        14.0067 
  32060         1      -13438.5         -2242.27   0.000352787       0.788227                 0        14.0067 
  32080         1      -13483.4         -2245.99   0.000352929       0.788546                 0        14.0067 
  32100         1      -13528.3         -2249.72   0.000353072       0.788864                 0        14.0067 
  32120         1      -13573.3         -2253.44   0.000353214       0.789182                 0        14.0067 
  32140         1      -13618.5         -2257.16   0.000353356       0.789501                 0        14.0067 
  32160         1      -13663.6         -2260.88   0.000353499       0.789819                 0        14.0067 
  32180         1      -13708.9          -2264.6   0.000353641       0.790137                 0        14.0067 
  32200         1      -13754.2         -2268.32   0.000353784       0.790455                 0        14.0067 
  32220         1      -13799.6         -2272.05   0.000353926       0.790773                 0        14.0067 
  32240         1      -13845.1         -2275.77   0.000354068       0.791091                 0        14.0067 
  32260         1      -13890.7         -2279.49    0.00035421       0.791408                 0        14.0067 
  32280         1      -13936.3         -2283.21   0.000354353       0.791726                 0        14.0067 
  32300         1        -13982         -2286.93   0.000354495       0.792044                 0        14.0067 
